Time (s),Voltage (V)
0.007492,0.053672
0.007493,0.053672
0.007494,0.052422
0.007495,0.054922
0.007496,0.057422
0.007497,0.053672
0.007498,0.051172
0.007499,0.057422
0.0075,0.056172
0.007501,0.054922
0.007502,0.052422
0.007503,0.054922
0.007504,0.057422
0.007505,0.054922
0.007506,0.049922
0.007507,0.054922
0.007508,0.056172
0.007509,0.056172
0.00751,0.051172
0.007511,0.054922
0.007512,0.052422
0.007513,0.053672
0.007514,0.053672
0.007515,0.056172
0.007516,0.056172
0.007517,0.054922
0.007518,0.056172
0.007519,0.052422
0.00752,0.057422
0.007521,0.052422
0.007522,0.054922
0.007523,0.057422
0.007524,0.056172
0.007525,0.057422
0.007526,0.052422
0.007527,0.057422
0.007528,0.054922
0.007529,0.053672
0.00753,0.054922
0.007531,0.057422
0.007532,0.053672
0.007533,0.056172
0.007534,0.054922
0.007535,0.053672
0.007536,0.056172
0.007537,0.056172
0.007538,0.056172
0.007539,0.056172
0.00754,0.057422
0.007541,0.057422
0.007542,0.053672
0.007543,0.054922
0.007544,0.056172
0.007545,0.054922
0.007546,0.056172
0.007547,0.056172
0.007548,0.056172
0.007549,0.056172
0.00755,0.056172
0.007551,0.059922
0.007552,0.056172
0.007553,0.057422
0.007554,0.056172
0.007555,0.053672
0.007556,0.058672
0.007557,0.056172
0.007558,0.056172
0.007559,0.056172
0.00756,0.057422
0.007561,0.053672
0.007562,0.053672
0.007563,0.059922
0.007564,0.054922
0.007565,0.057422
0.007566,0.054922
0.007567,0.061172
0.007568,0.056172
0.007569,0.057422
0.00757,0.052422
0.007571,0.054922
0.007572,0.058672
0.007573,0.053672
0.007574,0.059922
0.007575,0.054922
0.007576,0.062422
0.007577,0.054922
0.007578,0.057422
0.007579,0.059922
0.00758,0.057422
0.007581,0.057422
0.007582,0.057422
0.007583,0.058672
0.007584,0.057422
0.007585,0.056172
0.007586,0.056172
0.007587,0.058672
0.007588,0.059922
0.007589,0.054922
0.00759,0.054922
0.007591,0.058672
0.007592,0.059922
0.007593,0.057422
0.007594,0.054922
0.007595,0.058672
0.007596,0.057422
0.007597,0.058672
0.007598,0.058672
0.007599,0.056172
0.0076,0.061172
0.007601,0.058672
0.007602,0.058672
0.007603,0.057422
0.007604,0.059922
0.007605,0.057422
0.007606,0.054922
0.007607,0.056172
0.007608,0.059922
0.007609,0.058672
0.00761,0.056172
0.007611,0.061172
0.007612,0.056172
0.007613,0.056172
0.007614,0.057422
0.007615,0.056172
0.007616,0.058672
0.007617,0.059922
0.007618,0.059922
0.007619,0.058672
0.00762,0.061172
0.007621,0.057422
0.007622,0.059922
0.007623,0.058672
0.007624,0.058672
0.007625,0.058672
0.007626,0.058672
0.007627,0.059922
0.007628,0.057422
0.007629,0.059922
0.00763,0.058672
0.007631,0.061172
0.007632,0.058672
0.007633,0.058672
0.007634,0.058672
0.007635,0.059922
0.007636,0.058672
0.007637,0.059922
0.007638,0.061172
0.007639,0.061172
0.00764,0.062422
0.007641,0.059922
0.007642,0.061172
0.007643,0.059922
0.007644,0.059922
0.007645,0.059922
0.007646,0.062422
0.007647,0.059922
0.007648,0.063672
0.007649,0.063672
0.00765,0.057422
0.007651,0.058672
0.007652,0.058672
0.007653,0.063672
0.007654,0.058672
0.007655,0.059922
0.007656,0.062422
0.007657,0.062422
0.007658,0.058672
0.007659,0.061172
0.00766,0.059922
0.007661,0.063672
0.007662,0.059922
0.007663,0.059922
0.007664,0.061172
0.007665,0.062422
0.007666,0.061172
0.007667,0.063672
0.007668,0.062422
0.007669,0.061172
0.00767,0.063672
0.007671,0.062422
0.007672,0.062422
0.007673,0.061172
0.007674,0.062422
0.007675,0.066172
0.007676,0.063672
0.007677,0.061172
0.007678,0.062422
0.007679,0.064922
0.00768,0.062422
0.007681,0.061172
0.007682,0.062422
0.007683,0.063672
0.007684,0.061172
0.007685,0.063672
0.007686,0.063672
0.007687,0.062422
0.007688,0.066172
0.007689,0.068672
0.00769,0.066172
0.007691,0.063672
0.007692,0.068672
0.007693,0.066172
0.007694,0.066172
0.007695,0.066172
0.007696,0.068672
0.007697,0.068672
0.007698,0.064922
0.007699,0.064922
0.0077,0.066172
0.007701,0.068672
0.007702,0.062422
0.007703,0.068672
0.007704,0.069922
0.007705,0.069922
0.007706,0.068672
0.007707,0.069922
0.007708,0.067422
0.007709,0.072422
0.00771,0.069922
0.007711,0.071172
0.007712,0.068672
0.007713,0.069922
0.007714,0.069922
0.007715,0.072422
0.007716,0.071172
0.007717,0.072422
0.007718,0.067422
0.007719,0.072422
0.00772,0.072422
0.007721,0.069922
0.007722,0.067422
0.007723,0.071172
0.007724,0.073672
0.007725,0.073672
0.007726,0.072422
0.007727,0.071172
0.007728,0.077422
0.007729,0.076172
0.00773,0.073672
0.007731,0.079922
0.007732,0.078672
0.007733,0.078672
0.007734,0.072422
0.007735,0.078672
0.007736,0.077422
0.007737,0.079922
0.007738,0.081172
0.007739,0.079922
0.00774,0.078672
0.007741,0.082422
0.007742,0.079922
0.007743,0.081172
0.007744,0.082422
0.007745,0.082422
0.007746,0.083672
0.007747,0.082422
0.007748,0.082422
0.007749,0.086172
0.00775,0.083672
0.007751,0.087422
0.007752,0.082422
0.007753,0.086172
0.007754,0.086172
0.007755,0.088672
0.007756,0.087422
0.007757,0.091172
0.007758,0.089922
0.007759,0.092422
0.00776,0.091172
0.007761,0.091172
0.007762,0.092422
0.007763,0.094922
0.007764,0.097422
0.007765,0.096172
0.007766,0.093672
0.007767,0.097422
0.007768,0.101172
0.007769,0.097422
0.00777,0.098672
0.007771,0.094922
0.007772,0.102422
0.007773,0.098672
0.007774,0.097422
0.007775,0.102422
0.007776,0.102422
0.007777,0.102422
0.007778,0.104922
0.007779,0.104922
0.00778,0.106172
0.007781,0.109922
0.007782,0.106172
0.007783,0.112422
0.007784,0.108672
0.007785,0.111172
0.007786,0.111172
0.007787,0.112422
0.007788,0.114922
0.007789,0.113672
0.00779,0.113672
0.007791,0.114922
0.007792,0.118672
0.007793,0.121172
0.007794,0.114922
0.007795,0.122422
0.007796,0.118672
0.007797,0.122422
0.007798,0.122422
0.007799,0.123672
0.0078,0.126172
0.007801,0.122422
0.007802,0.124922
0.007803,0.126172
0.007804,0.128672
0.007805,0.128672
0.007806,0.132422
0.007807,0.129922
0.007808,0.129922
0.007809,0.131172
0.00781,0.131172
0.007811,0.133672
0.007812,0.137422
0.007813,0.132422
0.007814,0.134922
0.007815,0.137422
0.007816,0.139922
0.007817,0.139922
0.007818,0.137422
0.007819,0.139922
0.00782,0.142422
0.007821,0.141172
0.007822,0.141172
0.007823,0.146172
0.007824,0.148672
0.007825,0.147422
0.007826,0.149922
0.007827,0.148672
0.007828,0.148672
0.007829,0.151172
0.00783,0.149922
0.007831,0.149922
0.007832,0.152422
0.007833,0.156172
0.007834,0.153672
0.007835,0.157422
0.007836,0.158672
0.007837,0.157422
0.007838,0.154922
0.007839,0.162422
0.00784,0.157422
0.007841,0.158672
0.007842,0.158672
0.007843,0.161172
0.007844,0.161172
0.007845,0.162422
0.007846,0.161172
0.007847,0.167422
0.007848,0.166172
0.007849,0.164922
0.00785,0.161172
0.007851,0.167422
0.007852,0.172422
0.007853,0.168672
0.007854,0.171172
0.007855,0.169922
0.007856,0.171172
0.007857,0.173672
0.007858,0.171172
0.007859,0.177422
0.00786,0.172422
0.007861,0.172422
0.007862,0.172422
0.007863,0.173672
0.007864,0.172422
0.007865,0.177422
0.007866,0.174922
0.007867,0.177422
0.007868,0.176172
0.007869,0.176172
0.00787,0.178672
0.007871,0.182422
0.007872,0.178672
0.007873,0.179922
0.007874,0.179922
0.007875,0.181172
0.007876,0.181172
0.007877,0.182422
0.007878,0.183672
0.007879,0.186172
0.00788,0.183672
0.007881,0.183672
0.007882,0.183672
0.007883,0.184922
0.007884,0.182422
0.007885,0.183672
0.007886,0.183672
0.007887,0.187422
0.007888,0.187422
0.007889,0.189922
0.00789,0.186172
0.007891,0.187422
0.007892,0.191172
0.007893,0.188672
0.007894,0.183672
0.007895,0.187422
0.007896,0.189922
0.007897,0.187422
0.007898,0.188672
0.007899,0.186172
0.0079,0.191172
0.007901,0.187422
0.007902,0.186172
0.007903,0.187422
0.007904,0.187422
0.007905,0.188672
0.007906,0.186172
0.007907,0.188672
0.007908,0.188672
0.007909,0.188672
0.00791,0.188672
0.007911,0.187422
0.007912,0.187422
0.007913,0.186172
0.007914,0.187422
0.007915,0.188672
0.007916,0.186172
0.007917,0.188672
0.007918,0.186172
0.007919,0.186172
0.00792,0.188672
0.007921,0.186172
0.007922,0.186172
0.007923,0.184922
0.007924,0.187422
0.007925,0.187422
0.007926,0.183672
0.007927,0.183672
0.007928,0.182422
0.007929,0.187422
0.00793,0.181172
0.007931,0.182422
0.007932,0.184922
0.007933,0.182422
0.007934,0.183672
0.007935,0.181172
0.007936,0.186172
0.007937,0.178672
0.007938,0.181172
0.007939,0.184922
0.00794,0.178672
0.007941,0.181172
0.007942,0.182422
0.007943,0.179922
0.007944,0.179922
0.007945,0.182422
0.007946,0.179922
0.007947,0.178672
0.007948,0.176172
0.007949,0.178672
0.00795,0.176172
0.007951,0.178672
0.007952,0.176172
0.007953,0.174922
0.007954,0.174922
0.007955,0.176172
0.007956,0.173672
0.007957,0.172422
0.007958,0.171172
0.007959,0.172422
0.00796,0.173672
0.007961,0.172422
0.007962,0.171172
0.007963,0.171172
0.007964,0.166172
0.007965,0.166172
0.007966,0.167422
0.007967,0.168672
0.007968,0.166172
0.007969,0.166172
0.00797,0.163672
0.007971,0.168672
0.007972,0.166172
0.007973,0.162422
0.007974,0.161172
0.007975,0.158672
0.007976,0.163672
0.007977,0.162422
0.007978,0.159922
0.007979,0.159922
0.00798,0.159922
0.007981,0.161172
0.007982,0.156172
0.007983,0.158672
0.007984,0.157422
0.007985,0.156172
0.007986,0.158672
0.007987,0.156172
0.007988,0.157422
0.007989,0.154922
0.00799,0.152422
0.007991,0.151172
0.007992,0.153672
0.007993,0.151172
0.007994,0.151172
0.007995,0.151172
0.007996,0.149922
0.007997,0.151172
0.007998,0.147422
0.007999,0.147422
0.008,0.148672
0.008001,0.146172
0.008002,0.143672
0.008003,0.149922
0.008004,0.144922
0.008005,0.144922
0.008006,0.141172
0.008007,0.142422
0.008008,0.142422
0.008009,0.141172
0.00801,0.138672
0.008011,0.138672
0.008012,0.137422
0.008013,0.136172
0.008014,0.139922
0.008015,0.141172
0.008016,0.133672
0.008017,0.138672
0.008018,0.133672
0.008019,0.133672
0.00802,0.129922
0.008021,0.134922
0.008022,0.132422
0.008023,0.133672
0.008024,0.129922
0.008025,0.131172
0.008026,0.128672
0.008027,0.127422
0.008028,0.128672
0.008029,0.126172
0.00803,0.124922
0.008031,0.123672
0.008032,0.124922
0.008033,0.121172
0.008034,0.123672
0.008035,0.121172
0.008036,0.124922
0.008037,0.123672
0.008038,0.121172
0.008039,0.122422
0.00804,0.119922
0.008041,0.123672
0.008042,0.118672
0.008043,0.119922
0.008044,0.117422
0.008045,0.117422
0.008046,0.117422
0.008047,0.118672
0.008048,0.116172
0.008049,0.118672
0.00805,0.116172
0.008051,0.111172
0.008052,0.112422
0.008053,0.112422
0.008054,0.111172
0.008055,0.111172
0.008056,0.109922
0.008057,0.112422
0.008058,0.111172
0.008059,0.109922
0.00806,0.111172
0.008061,0.111172
0.008062,0.108672
0.008063,0.109922
0.008064,0.107422
0.008065,0.106172
0.008066,0.107422
0.008067,0.104922
0.008068,0.104922
0.008069,0.104922
0.00807,0.102422
0.008071,0.107422
0.008072,0.101172
0.008073,0.104922
0.008074,0.098672
0.008075,0.102422
0.008076,0.098672
0.008077,0.102422
0.008078,0.099922
0.008079,0.101172
0.00808,0.097422
0.008081,0.102422
0.008082,0.098672
0.008083,0.097422
0.008084,0.096172
0.008085,0.099922
0.008086,0.097422
0.008087,0.097422
0.008088,0.096172
0.008089,0.098672
0.00809,0.096172
0.008091,0.099922
0.008092,0.098672
0.008093,0.096172
0.008094,0.092422
0.008095,0.094922
0.008096,0.094922
0.008097,0.093672
0.008098,0.094922
0.008099,0.097422
0.0081,0.092422
0.008101,0.094922
0.008102,0.092422
0.008103,0.092422
0.008104,0.092422
0.008105,0.091172
0.008106,0.091172
0.008107,0.092422
0.008108,0.092422
0.008109,0.091172
0.00811,0.091172
0.008111,0.089922
0.008112,0.089922
0.008113,0.089922
0.008114,0.086172
0.008115,0.087422
0.008116,0.089922
0.008117,0.088672
0.008118,0.087422
0.008119,0.087422
0.00812,0.087422
0.008121,0.087422
0.008122,0.088672
0.008123,0.086172
0.008124,0.084922
0.008125,0.086172
0.008126,0.086172
0.008127,0.087422
0.008128,0.086172
0.008129,0.086172
0.00813,0.083672
0.008131,0.082422
0.008132,0.083672
0.008133,0.084922
0.008134,0.083672
0.008135,0.082422
0.008136,0.086172
0.008137,0.084922
0.008138,0.083672
0.008139,0.086172
0.00814,0.079922
0.008141,0.083672
0.008142,0.081172
0.008143,0.082422
0.008144,0.077422
0.008145,0.082422
0.008146,0.079922
0.008147,0.082422
0.008148,0.078672
0.008149,0.082422
0.00815,0.077422
0.008151,0.082422
0.008152,0.078672
0.008153,0.082422
0.008154,0.078672
0.008155,0.079922
0.008156,0.079922
0.008157,0.078672
0.008158,0.077422
0.008159,0.079922
0.00816,0.074922
0.008161,0.078672
0.008162,0.073672
0.008163,0.078672
0.008164,0.076172
0.008165,0.076172
0.008166,0.077422
0.008167,0.078672
0.008168,0.077422
0.008169,0.077422
0.00817,0.076172
0.008171,0.078672
0.008172,0.076172
0.008173,0.077422
0.008174,0.074922
0.008175,0.078672
0.008176,0.077422
0.008177,0.078672
0.008178,0.076172
0.008179,0.073672
0.00818,0.077422
0.008181,0.078672
0.008182,0.073672
0.008183,0.076172
0.008184,0.076172
0.008185,0.073672
0.008186,0.078672
0.008187,0.076172
0.008188,0.072422
0.008189,0.071172
0.00819,0.073672
0.008191,0.074922
0.008192,0.072422
0.008193,0.073672
0.008194,0.071172
0.008195,0.076172
0.008196,0.072422
0.008197,0.076172
0.008198,0.071172
0.008199,0.074922
0.0082,0.072422
0.008201,0.072422
0.008202,0.073672
0.008203,0.073672
0.008204,0.074922
0.008205,0.072422
0.008206,0.072422
0.008207,0.069922
0.008208,0.069922
0.008209,0.072422
0.00821,0.068672
0.008211,0.073672
0.008212,0.069922
0.008213,0.071172
0.008214,0.071172
0.008215,0.068672
0.008216,0.068672
0.008217,0.069922
0.008218,0.067422
0.008219,0.071172
0.00822,0.067422
0.008221,0.069922
0.008222,0.071172
0.008223,0.071172
0.008224,0.068672
0.008225,0.068672
0.008226,0.067422
0.008227,0.064922
0.008228,0.069922
0.008229,0.068672
0.00823,0.068672
0.008231,0.069922
0.008232,0.071172
0.008233,0.068672
0.008234,0.067422
0.008235,0.068672
0.008236,0.068672
0.008237,0.067422
0.008238,0.069922
0.008239,0.064922
0.00824,0.066172
0.008241,0.067422
0.008242,0.067422
0.008243,0.068672
0.008244,0.067422
0.008245,0.068672
0.008246,0.068672
0.008247,0.068672
0.008248,0.068672
0.008249,0.068672
0.00825,0.063672
0.008251,0.068672
0.008252,0.064922
0.008253,0.067422
0.008254,0.062422
0.008255,0.064922
0.008256,0.071172
0.008257,0.066172
0.008258,0.062422
0.008259,0.066172
0.00826,0.067422
0.008261,0.064922
0.008262,0.064922
0.008263,0.067422
0.008264,0.064922
0.008265,0.063672
0.008266,0.061172
0.008267,0.063672
0.008268,0.067422
0.008269,0.062422
0.00827,0.062422
0.008271,0.063672
0.008272,0.068672
0.008273,0.064922
0.008274,0.059922
0.008275,0.061172
0.008276,0.061172
0.008277,0.062422
0.008278,0.061172
0.008279,0.064922
0.00828,0.062422
0.008281,0.063672
0.008282,0.063672
0.008283,0.063672
0.008284,0.061172
0.008285,0.063672
0.008286,0.062422
0.008287,0.066172
0.008288,0.062422
0.008289,0.063672
0.00829,0.062422
0.008291,0.063672
0.008292,0.061172
0.008293,0.062422
0.008294,0.057422
0.008295,0.063672
0.008296,0.062422
0.008297,0.063672
0.008298,0.061172
0.008299,0.059922
0.0083,0.062422
0.008301,0.061172
0.008302,0.059922
0.008303,0.062422
0.008304,0.059922
0.008305,0.057422
0.008306,0.059922
0.008307,0.061172
0.008308,0.062422
0.008309,0.059922
0.00831,0.061172
0.008311,0.061172
0.008312,0.062422
0.008313,0.061172
0.008314,0.058672
0.008315,0.061172
0.008316,0.058672
0.008317,0.058672
0.008318,0.058672
0.008319,0.058672
0.00832,0.058672
0.008321,0.056172
0.008322,0.058672
0.008323,0.059922
0.008324,0.058672
0.008325,0.061172
0.008326,0.056172
0.008327,0.062422
0.008328,0.059922
0.008329,0.059922
0.00833,0.054922
0.008331,0.062422
0.008332,0.058672
0.008333,0.059922
0.008334,0.061172
0.008335,0.059922
0.008336,0.059922
0.008337,0.057422
0.008338,0.057422
0.008339,0.059922
0.00834,0.059922
0.008341,0.059922
0.008342,0.057422
0.008343,0.058672
0.008344,0.056172
0.008345,0.056172
0.008346,0.056172
0.008347,0.058672
0.008348,0.061172
0.008349,0.054922
0.00835,0.054922
0.008351,0.057422
0.008352,0.057422
0.008353,0.058672
0.008354,0.057422
0.008355,0.056172
0.008356,0.058672
0.008357,0.056172
0.008358,0.056172
0.008359,0.057422
0.00836,0.061172
0.008361,0.057422
0.008362,0.056172
0.008363,0.058672
0.008364,0.057422
0.008365,0.061172
0.008366,0.054922
0.008367,0.057422
0.008368,0.056172
0.008369,0.061172
0.00837,0.059922
0.008371,0.058672
0.008372,0.057422
0.008373,0.058672
0.008374,0.057422
0.008375,0.057422
0.008376,0.057422
0.008377,0.059922
0.008378,0.054922
0.008379,0.058672
0.00838,0.057422
0.008381,0.059922
0.008382,0.054922
0.008383,0.056172
0.008384,0.058672
0.008385,0.058672
0.008386,0.049922
0.008387,0.057422
0.008388,0.056172
0.008389,0.056172
0.00839,0.053672
0.008391,0.056172
0.008392,0.057422
0.008393,0.056172
0.008394,0.053672
0.008395,0.061172
0.008396,0.053672
0.008397,0.056172
0.008398,0.053672
0.008399,0.058672
0.0084,0.057422
0.008401,0.057422
0.008402,0.054922
0.008403,0.057422
0.008404,0.054922
0.008405,0.056172
0.008406,0.052422
0.008407,0.057422
0.008408,0.057422
0.008409,0.056172
0.00841,0.053672
0.008411,0.056172
0.008412,0.056172
0.008413,0.058672
0.008414,0.056172
0.008415,0.056172
0.008416,0.054922
0.008417,0.057422
0.008418,0.051172
0.008419,0.056172
0.00842,0.056172
0.008421,0.051172
0.008422,0.052422
0.008423,0.056172
0.008424,0.052422
0.008425,0.058672
0.008426,0.056172
0.008427,0.054922
0.008428,0.053672
0.008429,0.057422
0.00843,0.052422
0.008431,0.056172
0.008432,0.053672
0.008433,0.054922
0.008434,0.051172
0.008435,0.052422
0.008436,0.057422
0.008437,0.056172
0.008438,0.052422
0.008439,0.056172
0.00844,0.057422
0.008441,0.056172
0.008442,0.053672
0.008443,0.054922
0.008444,0.057422
0.008445,0.054922
0.008446,0.053672
0.008447,0.056172
0.008448,0.053672
0.008449,0.054922
0.00845,0.054922
0.008451,0.053672
0.008452,0.052422
0.008453,0.053672
0.008454,0.053672
0.008455,0.056172
0.008456,0.053672
0.008457,0.049922
0.008458,0.054922
0.008459,0.057422
0.00846,0.053672
0.008461,0.053672
0.008462,0.053672
0.008463,0.054922
0.008464,0.057422
0.008465,0.051172
0.008466,0.053672
0.008467,0.056172
0.008468,0.057422
0.008469,0.054922
0.00847,0.054922
0.008471,0.054922
0.008472,0.052422
0.008473,0.054922
0.008474,0.052422
0.008475,0.057422
0.008476,0.053672
0.008477,0.056172
0.008478,0.052422
0.008479,0.053672
0.00848,0.057422
0.008481,0.053672
0.008482,0.056172
0.008483,0.053672
0.008484,0.054922
0.008485,0.052422
0.008486,0.052422
0.008487,0.058672
0.008488,0.056172
0.008489,0.054922
0.00849,0.049922
0.008491,0.052422
0.008492,0.054922
0.008493,0.056172
0.008494,0.054922
0.008495,0.058672
0.008496,0.053672
0.008497,0.057422
0.008498,0.049922
0.008499,0.054922
0.0085,0.052422
0.008501,0.058672
0.008502,0.051172
0.008503,0.057422
0.008504,0.053672
0.008505,0.054922
0.008506,0.057422
0.008507,0.054922
0.008508,0.054922
0.008509,0.054922
0.00851,0.054922
0.008511,0.054922
0.008512,0.053672
0.008513,0.056172
0.008514,0.054922
0.008515,0.052422
0.008516,0.054922
0.008517,0.053672
0.008518,0.056172
0.008519,0.056172
0.00852,0.056172
0.008521,0.056172
0.008522,0.053672
0.008523,0.053672
0.008524,0.056172
0.008525,0.058672
0.008526,0.054922
0.008527,0.053672
0.008528,0.056172
0.008529,0.059922
0.00853,0.052422
0.008531,0.054922
0.008532,0.054922
0.008533,0.056172
0.008534,0.053672
0.008535,0.052422
0.008536,0.059922
0.008537,0.054922
0.008538,0.053672
0.008539,0.057422
0.00854,0.053672
0.008541,0.054922
0.008542,0.053672
0.008543,0.057422
0.008544,0.057422
0.008545,0.057422
0.008546,0.054922
0.008547,0.057422
0.008548,0.056172
0.008549,0.056172
0.00855,0.052422
0.008551,0.054922
0.008552,0.057422
0.008553,0.053672
0.008554,0.056172
0.008555,0.058672
0.008556,0.056172
0.008557,0.054922
0.008558,0.056172
0.008559,0.057422
0.00856,0.057422
0.008561,0.056172
0.008562,0.053672
0.008563,0.057422
0.008564,0.056172
0.008565,0.059922
0.008566,0.054922
0.008567,0.058672
0.008568,0.057422
0.008569,0.056172
0.00857,0.054922
0.008571,0.056172
0.008572,0.058672
0.008573,0.057422
0.008574,0.053672
0.008575,0.058672
0.008576,0.059922
0.008577,0.059922
0.008578,0.054922
0.008579,0.057422
0.00858,0.059922
0.008581,0.053672
0.008582,0.057422
0.008583,0.056172
0.008584,0.057422
0.008585,0.057422
0.008586,0.056172
0.008587,0.056172
0.008588,0.057422
0.008589,0.058672
0.00859,0.057422
0.008591,0.054922
0.008592,0.059922
0.008593,0.058672
0.008594,0.058672
0.008595,0.061172
0.008596,0.059922
0.008597,0.058672
0.008598,0.056172
0.008599,0.054922
0.0086,0.057422
0.008601,0.061172
0.008602,0.054922
0.008603,0.057422
0.008604,0.058672
0.008605,0.056172
0.008606,0.057422
0.008607,0.059922
0.008608,0.059922
0.008609,0.059922
0.00861,0.059922
0.008611,0.058672
0.008612,0.057422
0.008613,0.059922
0.008614,0.057422
0.008615,0.058672
0.008616,0.061172
0.008617,0.056172
0.008618,0.057422
0.008619,0.059922
0.00862,0.061172
0.008621,0.059922
0.008622,0.057422
0.008623,0.061172
0.008624,0.058672
0.008625,0.061172
0.008626,0.059922
0.008627,0.061172
0.008628,0.058672
0.008629,0.063672
0.00863,0.061172
0.008631,0.059922
0.008632,0.057422
0.008633,0.062422
0.008634,0.058672
0.008635,0.061172
0.008636,0.062422
0.008637,0.061172
0.008638,0.054922
0.008639,0.058672
0.00864,0.059922
0.008641,0.058672
0.008642,0.061172
0.008643,0.062422
0.008644,0.061172
0.008645,0.058672
0.008646,0.058672
0.008647,0.057422
0.008648,0.063672
0.008649,0.057422
0.00865,0.059922
0.008651,0.059922
0.008652,0.061172
0.008653,0.061172
0.008654,0.061172
0.008655,0.059922
0.008656,0.063672
0.008657,0.061172
0.008658,0.062422
0.008659,0.063672
0.00866,0.061172
0.008661,0.061172
0.008662,0.062422
0.008663,0.062422
0.008664,0.062422
0.008665,0.061172
0.008666,0.064922
0.008667,0.064922
0.008668,0.061172
0.008669,0.061172
0.00867,0.061172
0.008671,0.062422
0.008672,0.066172
0.008673,0.062422
0.008674,0.058672
0.008675,0.063672
0.008676,0.062422
0.008677,0.063672
0.008678,0.064922
0.008679,0.063672
0.00868,0.063672
0.008681,0.062422
0.008682,0.061172
0.008683,0.064922
0.008684,0.067422
0.008685,0.066172
0.008686,0.063672
0.008687,0.063672
0.008688,0.063672
0.008689,0.062422
0.00869,0.061172
0.008691,0.067422
0.008692,0.066172
0.008693,0.067422
0.008694,0.066172
0.008695,0.064922
0.008696,0.066172
0.008697,0.066172
0.008698,0.067422
0.008699,0.063672
0.0087,0.066172
0.008701,0.069922
0.008702,0.067422
0.008703,0.067422
0.008704,0.067422
0.008705,0.069922
0.008706,0.066172
0.008707,0.069922
0.008708,0.071172
0.008709,0.069922
0.00871,0.068672
0.008711,0.072422
0.008712,0.069922
0.008713,0.071172
0.008714,0.069922
0.008715,0.067422
0.008716,0.071172
0.008717,0.072422
0.008718,0.068672
0.008719,0.069922
0.00872,0.074922
0.008721,0.071172
0.008722,0.071172
0.008723,0.073672
0.008724,0.073672
0.008725,0.074922
0.008726,0.073672
0.008727,0.077422
0.008728,0.072422
0.008729,0.076172
0.00873,0.074922
0.008731,0.076172
0.008732,0.076172
0.008733,0.079922
0.008734,0.078672
0.008735,0.077422
0.008736,0.081172
0.008737,0.079922
0.008738,0.078672
0.008739,0.078672
0.00874,0.081172
0.008741,0.077422
0.008742,0.079922
0.008743,0.083672
0.008744,0.082422
0.008745,0.083672
0.008746,0.082422
0.008747,0.079922
0.008748,0.086172
0.008749,0.086172
0.00875,0.084922
0.008751,0.088672
0.008752,0.088672
0.008753,0.087422
0.008754,0.088672
0.008755,0.088672
0.008756,0.088672
0.008757,0.086172
0.008758,0.089922
0.008759,0.092422
0.00876,0.091172
0.008761,0.088672
0.008762,0.092422
0.008763,0.092422
0.008764,0.096172
0.008765,0.092422
0.008766,0.091172
0.008767,0.097422
0.008768,0.098672
0.008769,0.099922
0.00877,0.097422
0.008771,0.098672
0.008772,0.101172
0.008773,0.096172
0.008774,0.099922
0.008775,0.103672
0.008776,0.103672
0.008777,0.104922
0.008778,0.103672
0.008779,0.103672
0.00878,0.106172
0.008781,0.111172
0.008782,0.107422
0.008783,0.112422
0.008784,0.108672
0.008785,0.113672
0.008786,0.111172
0.008787,0.114922
0.008788,0.116172
0.008789,0.114922
0.00879,0.113672
0.008791,0.114922
0.008792,0.116172
0.008793,0.117422
0.008794,0.117422
0.008795,0.117422
0.008796,0.121172
0.008797,0.117422
0.008798,0.121172
0.008799,0.123672
0.0088,0.123672
0.008801,0.122422
0.008802,0.126172
0.008803,0.127422
0.008804,0.127422
0.008805,0.127422
0.008806,0.127422
0.008807,0.131172
0.008808,0.129922
0.008809,0.133672
0.00881,0.133672
0.008811,0.133672
0.008812,0.137422
0.008813,0.138672
0.008814,0.134922
0.008815,0.141172
0.008816,0.141172
0.008817,0.141172
0.008818,0.138672
0.008819,0.142422
0.00882,0.139922
0.008821,0.144922
0.008822,0.142422
0.008823,0.148672
0.008824,0.148672
0.008825,0.146172
0.008826,0.148672
0.008827,0.147422
0.008828,0.148672
0.008829,0.151172
0.00883,0.147422
0.008831,0.149922
0.008832,0.152422
0.008833,0.153672
0.008834,0.153672
0.008835,0.154922
0.008836,0.156172
0.008837,0.157422
0.008838,0.154922
0.008839,0.158672
0.00884,0.158672
0.008841,0.159922
0.008842,0.158672
0.008843,0.162422
0.008844,0.163672
0.008845,0.163672
0.008846,0.162422
0.008847,0.163672
0.008848,0.167422
0.008849,0.166172
0.00885,0.164922
0.008851,0.168672
0.008852,0.168672
0.008853,0.171172
0.008854,0.168672
0.008855,0.171172
0.008856,0.171172
0.008857,0.174922
0.008858,0.169922
0.008859,0.173672
0.00886,0.174922
0.008861,0.174922
0.008862,0.171172
0.008863,0.176172
0.008864,0.177422
0.008865,0.177422
0.008866,0.177422
0.008867,0.179922
0.008868,0.177422
0.008869,0.176172
0.00887,0.178672
0.008871,0.179922
0.008872,0.181172
0.008873,0.179922
0.008874,0.181172
0.008875,0.179922
0.008876,0.178672
0.008877,0.181172
0.008878,0.178672
0.008879,0.183672
0.00888,0.182422
0.008881,0.181172
0.008882,0.184922
0.008883,0.183672
0.008884,0.184922
0.008885,0.184922
0.008886,0.184922
0.008887,0.184922
0.008888,0.187422
0.008889,0.186172
0.00889,0.188672
0.008891,0.189922
0.008892,0.188672
0.008893,0.186172
0.008894,0.186172
0.008895,0.186172
0.008896,0.187422
0.008897,0.187422
0.008898,0.184922
0.008899,0.186172
0.0089,0.187422
0.008901,0.188672
0.008902,0.189922
0.008903,0.189922
0.008904,0.187422
0.008905,0.187422
0.008906,0.188672
0.008907,0.188672
0.008908,0.188672
0.008909,0.189922
0.00891,0.188672
0.008911,0.186172
0.008912,0.187422
0.008913,0.187422
0.008914,0.187422
0.008915,0.184922
0.008916,0.187422
0.008917,0.189922
0.008918,0.184922
0.008919,0.186172
0.00892,0.187422
0.008921,0.186172
0.008922,0.182422
0.008923,0.187422
0.008924,0.188672
0.008925,0.186172
0.008926,0.184922
0.008927,0.184922
0.008928,0.181172
0.008929,0.181172
0.00893,0.183672
0.008931,0.183672
0.008932,0.183672
0.008933,0.186172
0.008934,0.186172
0.008935,0.181172
0.008936,0.182422
0.008937,0.182422
0.008938,0.179922
0.008939,0.179922
0.00894,0.181172
0.008941,0.179922
0.008942,0.179922
0.008943,0.182422
0.008944,0.181172
0.008945,0.182422
0.008946,0.179922
0.008947,0.177422
0.008948,0.178672
0.008949,0.177422
0.00895,0.174922
0.008951,0.177422
0.008952,0.176172
0.008953,0.174922
0.008954,0.177422
0.008955,0.176172
0.008956,0.178672
0.008957,0.172422
0.008958,0.173672
0.008959,0.176172
0.00896,0.173672
0.008961,0.172422
0.008962,0.166172
0.008963,0.173672
0.008964,0.169922
0.008965,0.169922
0.008966,0.168672
0.008967,0.169922
0.008968,0.164922
0.008969,0.167422
0.00897,0.164922
0.008971,0.164922
0.008972,0.164922
0.008973,0.164922
0.008974,0.162422
0.008975,0.163672
0.008976,0.163672
0.008977,0.161172
0.008978,0.161172
0.008979,0.161172
0.00898,0.161172
0.008981,0.159922
0.008982,0.156172
0.008983,0.154922
0.008984,0.158672
0.008985,0.156172
0.008986,0.153672
0.008987,0.156172
0.008988,0.157422
0.008989,0.153672
0.00899,0.154922
0.008991,0.153672
0.008992,0.154922
0.008993,0.146172
0.008994,0.147422
0.008995,0.149922
0.008996,0.151172
0.008997,0.149922
0.008998,0.148672
0.008999,0.148672
0.009,0.148672
0.009001,0.148672
0.009002,0.143672
0.009003,0.139922
0.009004,0.143672
0.009005,0.144922
0.009006,0.142422
0.009007,0.146172
0.009008,0.141172
0.009009,0.138672
0.00901,0.137422
0.009011,0.137422
0.009012,0.138672
0.009013,0.141172
0.009014,0.136172
0.009015,0.136172
0.009016,0.138672
0.009017,0.134922
0.009018,0.136172
0.009019,0.128672
0.00902,0.134922
0.009021,0.131172
0.009022,0.133672
0.009023,0.129922
0.009024,0.132422
0.009025,0.129922
0.009026,0.127422
0.009027,0.129922
0.009028,0.128672
0.009029,0.127422
0.00903,0.126172
0.009031,0.128672
0.009032,0.126172
0.009033,0.126172
0.009034,0.122422
0.009035,0.122422
0.009036,0.118672
0.009037,0.123672
0.009038,0.124922
0.009039,0.121172
0.00904,0.122422
0.009041,0.121172
0.009042,0.122422
0.009043,0.119922
0.009044,0.118672
0.009045,0.117422
0.009046,0.113672
0.009047,0.119922
0.009048,0.114922
0.009049,0.114922
0.00905,0.114922
0.009051,0.116172
0.009052,0.113672
0.009053,0.114922
0.009054,0.109922
0.009055,0.111172
0.009056,0.111172
0.009057,0.111172
0.009058,0.109922
0.009059,0.111172
0.00906,0.111172
0.009061,0.109922
0.009062,0.107422
0.009063,0.108672
0.009064,0.107422
0.009065,0.104922
0.009066,0.103672
0.009067,0.102422
0.009068,0.104922
0.009069,0.108672
0.00907,0.102422
0.009071,0.106172
0.009072,0.101172
0.009073,0.106172
0.009074,0.099922
0.009075,0.099922
0.009076,0.103672
0.009077,0.101172
0.009078,0.099922
0.009079,0.101172
0.00908,0.102422
0.009081,0.097422
0.009082,0.098672
0.009083,0.099922
0.009084,0.097422
0.009085,0.096172
0.009086,0.098672
0.009087,0.101172
0.009088,0.096172
0.009089,0.094922
0.00909,0.094922
0.009091,0.096172
0.009092,0.094922
0.009093,0.096172
0.009094,0.093672
0.009095,0.097422
0.009096,0.091172
0.009097,0.092422
0.009098,0.092422
0.009099,0.088672
0.0091,0.091172
0.009101,0.092422
0.009102,0.093672
0.009103,0.092422
0.009104,0.091172
0.009105,0.092422
0.009106,0.084922
0.009107,0.092422
0.009108,0.088672
0.009109,0.088672
0.00911,0.087422
0.009111,0.088672
0.009112,0.087422
0.009113,0.087422
0.009114,0.087422
0.009115,0.086172
0.009116,0.089922
0.009117,0.084922
0.009118,0.087422
0.009119,0.088672
0.00912,0.088672
0.009121,0.086172
0.009122,0.082422
0.009123,0.084922
0.009124,0.087422
0.009125,0.087422
0.009126,0.086172
0.009127,0.086172
0.009128,0.084922
0.009129,0.083672
0.00913,0.081172
0.009131,0.084922
0.009132,0.083672
0.009133,0.083672
0.009134,0.082422
0.009135,0.081172
0.009136,0.082422
0.009137,0.083672
0.009138,0.076172
0.009139,0.084922
0.00914,0.082422
0.009141,0.083672
0.009142,0.078672
0.009143,0.079922
0.009144,0.077422
0.009145,0.081172
0.009146,0.078672
0.009147,0.082422
0.009148,0.079922
0.009149,0.081172
0.00915,0.078672
0.009151,0.079922
0.009152,0.079922
0.009153,0.079922
0.009154,0.079922
0.009155,0.079922
0.009156,0.078672
0.009157,0.079922
0.009158,0.078672
0.009159,0.077422
0.00916,0.081172
0.009161,0.078672
0.009162,0.079922
0.009163,0.077422
0.009164,0.077422
0.009165,0.079922
0.009166,0.077422
0.009167,0.077422
0.009168,0.076172
0.009169,0.077422
0.00917,0.073672
0.009171,0.077422
0.009172,0.076172
0.009173,0.074922
0.009174,0.076172
0.009175,0.078672
0.009176,0.077422
0.009177,0.074922
0.009178,0.074922
0.009179,0.077422
0.00918,0.074922
0.009181,0.071172
0.009182,0.073672
0.009183,0.074922
0.009184,0.074922
0.009185,0.073672
0.009186,0.072422
0.009187,0.078672
0.009188,0.072422
0.009189,0.073672
0.00919,0.069922
0.009191,0.077422
0.009192,0.077422
0.009193,0.074922
0.009194,0.071172
0.009195,0.073672
0.009196,0.071172
0.009197,0.076172
0.009198,0.071172
0.009199,0.077422
0.0092,0.074922
0.009201,0.072422
0.009202,0.068672
0.009203,0.076172
0.009204,0.072422
0.009205,0.069922
0.009206,0.072422
0.009207,0.071172
0.009208,0.071172
0.009209,0.072422
0.00921,0.067422
0.009211,0.071172
0.009212,0.068672
0.009213,0.072422
0.009214,0.071172
0.009215,0.069922
0.009216,0.071172
0.009217,0.071172
0.009218,0.068672
0.009219,0.068672
0.00922,0.068672
0.009221,0.067422
0.009222,0.071172
0.009223,0.069922
0.009224,0.076172
0.009225,0.069922
0.009226,0.069922
0.009227,0.068672
0.009228,0.068672
0.009229,0.069922
0.00923,0.066172
0.009231,0.067422
0.009232,0.067422
0.009233,0.069922
0.009234,0.067422
0.009235,0.067422
0.009236,0.068672
0.009237,0.069922
0.009238,0.067422
0.009239,0.071172
0.00924,0.067422
0.009241,0.066172
0.009242,0.068672
0.009243,0.067422
0.009244,0.071172
0.009245,0.066172
0.009246,0.063672
0.009247,0.064922
0.009248,0.067422
0.009249,0.066172
0.00925,0.066172
0.009251,0.064922
0.009252,0.069922
0.009253,0.064922
0.009254,0.067422
0.009255,0.066172
0.009256,0.064922
0.009257,0.066172
0.009258,0.062422
0.009259,0.064922
0.00926,0.066172
0.009261,0.068672
0.009262,0.061172
0.009263,0.064922
0.009264,0.063672
0.009265,0.066172
0.009266,0.063672
0.009267,0.064922
0.009268,0.063672
0.009269,0.064922
0.00927,0.066172
0.009271,0.066172
0.009272,0.062422
0.009273,0.067422
0.009274,0.063672
0.009275,0.063672
0.009276,0.063672
0.009277,0.063672
0.009278,0.063672
0.009279,0.064922
0.00928,0.062422
0.009281,0.062422
0.009282,0.062422
0.009283,0.064922
0.009284,0.063672
0.009285,0.062422
0.009286,0.062422
0.009287,0.062422
0.009288,0.063672
0.009289,0.063672
0.00929,0.061172
0.009291,0.062422
0.009292,0.064922
0.009293,0.064922
0.009294,0.059922
0.009295,0.057422
0.009296,0.062422
0.009297,0.059922
0.009298,0.061172
0.009299,0.059922
0.0093,0.062422
0.009301,0.061172
0.009302,0.062422
0.009303,0.061172
0.009304,0.061172
0.009305,0.059922
0.009306,0.058672
0.009307,0.062422
0.009308,0.061172
0.009309,0.058672
0.00931,0.058672
0.009311,0.058672
0.009312,0.062422
0.009313,0.061172
0.009314,0.057422
0.009315,0.057422
0.009316,0.059922
0.009317,0.061172
0.009318,0.062422
0.009319,0.056172
0.00932,0.058672
0.009321,0.058672
0.009322,0.058672
0.009323,0.058672
0.009324,0.061172
0.009325,0.059922
0.009326,0.058672
0.009327,0.061172
0.009328,0.061172
0.009329,0.061172
0.00933,0.057422
0.009331,0.059922
0.009332,0.058672
0.009333,0.056172
0.009334,0.057422
0.009335,0.058672
0.009336,0.057422
0.009337,0.057422
0.009338,0.054922
0.009339,0.059922
0.00934,0.058672
0.009341,0.061172
0.009342,0.059922
0.009343,0.059922
0.009344,0.057422
0.009345,0.061172
0.009346,0.057422
0.009347,0.059922
0.009348,0.057422
0.009349,0.059922
0.00935,0.054922
0.009351,0.061172
0.009352,0.062422
0.009353,0.059922
0.009354,0.053672
0.009355,0.057422
0.009356,0.054922
0.009357,0.058672
0.009358,0.057422
0.009359,0.058672
0.00936,0.058672
0.009361,0.057422
0.009362,0.054922
0.009363,0.058672
0.009364,0.057422
0.009365,0.053672
0.009366,0.056172
0.009367,0.056172
0.009368,0.061172
0.009369,0.062422
0.00937,0.057422
0.009371,0.059922
0.009372,0.054922
0.009373,0.056172
0.009374,0.057422
0.009375,0.056172
0.009376,0.057422
0.009377,0.057422
0.009378,0.053672
0.009379,0.057422
0.00938,0.057422
0.009381,0.059922
0.009382,0.059922
0.009383,0.053672
0.009384,0.057422
0.009385,0.053672
0.009386,0.053672
0.009387,0.056172
0.009388,0.056172
0.009389,0.056172
0.00939,0.054922
0.009391,0.057422
0.009392,0.052422
0.009393,0.057422
0.009394,0.053672
0.009395,0.056172
0.009396,0.057422
0.009397,0.054922
0.009398,0.058672
0.009399,0.054922
0.0094,0.056172
0.009401,0.056172
0.009402,0.054922
0.009403,0.057422
0.009404,0.057422
0.009405,0.056172
0.009406,0.056172
0.009407,0.056172
0.009408,0.054922
0.009409,0.056172
0.00941,0.054922
0.009411,0.056172
0.009412,0.053672
0.009413,0.054922
0.009414,0.056172
0.009415,0.057422
0.009416,0.056172
0.009417,0.058672
0.009418,0.052422
0.009419,0.054922
0.00942,0.054922
0.009421,0.057422
0.009422,0.056172
0.009423,0.053672
0.009424,0.059922
0.009425,0.057422
0.009426,0.051172
0.009427,0.056172
0.009428,0.056172
0.009429,0.056172
0.00943,0.054922
0.009431,0.052422
0.009432,0.054922
0.009433,0.054922
0.009434,0.053672
0.009435,0.057422
0.009436,0.056172
0.009437,0.053672
0.009438,0.056172
0.009439,0.053672
0.00944,0.057422
0.009441,0.056172
0.009442,0.053672
0.009443,0.056172
0.009444,0.058672
0.009445,0.053672
0.009446,0.052422
0.009447,0.052422
0.009448,0.051172
0.009449,0.053672
0.00945,0.051172
0.009451,0.054922
0.009452,0.056172
0.009453,0.054922
0.009454,0.051172
0.009455,0.054922
0.009456,0.054922
0.009457,0.051172
0.009458,0.052422
0.009459,0.052422
0.00946,0.053672
0.009461,0.056172
0.009462,0.056172
0.009463,0.057422
0.009464,0.053672
0.009465,0.053672
0.009466,0.053672
0.009467,0.053672
0.009468,0.053672
0.009469,0.054922
0.00947,0.053672
0.009471,0.052422
0.009472,0.054922
0.009473,0.053672
0.009474,0.052422
0.009475,0.054922
0.009476,0.056172
0.009477,0.051172
0.009478,0.057422
0.009479,0.056172
0.00948,0.058672
0.009481,0.053672
0.009482,0.054922
0.009483,0.054922
0.009484,0.057422
0.009485,0.054922
0.009486,0.056172
0.009487,0.051172
0.009488,0.052422
0.009489,0.054922
0.00949,0.054922
0.009491,0.056172
