Time (s),Voltage (V)
0.007373,0.077422
0.007374,0.079922
0.007375,0.082422
0.007376,0.077422
0.007377,0.081172
0.007378,0.082422
0.007379,0.082422
0.00738,0.084922
0.007381,0.084922
0.007382,0.081172
0.007383,0.082422
0.007384,0.083672
0.007385,0.081172
0.007386,0.082422
0.007387,0.084922
0.007388,0.086172
0.007389,0.086172
0.00739,0.088672
0.007391,0.089922
0.007392,0.084922
0.007393,0.087422
0.007394,0.088672
0.007395,0.088672
0.007396,0.089922
0.007397,0.086172
0.007398,0.091172
0.007399,0.089922
0.0074,0.092422
0.007401,0.089922
0.007402,0.093672
0.007403,0.094922
0.007404,0.092422
0.007405,0.089922
0.007406,0.096172
0.007407,0.091172
0.007408,0.093672
0.007409,0.089922
0.00741,0.092422
0.007411,0.093672
0.007412,0.094922
0.007413,0.094922
0.007414,0.097422
0.007415,0.097422
0.007416,0.098672
0.007417,0.096172
0.007418,0.094922
0.007419,0.097422
0.00742,0.099922
0.007421,0.097422
0.007422,0.102422
0.007423,0.101172
0.007424,0.102422
0.007425,0.103672
0.007426,0.102422
0.007427,0.102422
0.007428,0.103672
0.007429,0.102422
0.00743,0.102422
0.007431,0.103672
0.007432,0.106172
0.007433,0.103672
0.007434,0.108672
0.007435,0.106172
0.007436,0.108672
0.007437,0.106172
0.007438,0.107422
0.007439,0.109922
0.00744,0.108672
0.007441,0.107422
0.007442,0.109922
0.007443,0.108672
0.007444,0.108672
0.007445,0.108672
0.007446,0.111172
0.007447,0.111172
0.007448,0.113672
0.007449,0.113672
0.00745,0.114922
0.007451,0.112422
0.007452,0.111172
0.007453,0.112422
0.007454,0.112422
0.007455,0.116172
0.007456,0.114922
0.007457,0.114922
0.007458,0.116172
0.007459,0.117422
0.00746,0.117422
0.007461,0.118672
0.007462,0.116172
0.007463,0.121172
0.007464,0.116172
0.007465,0.119922
0.007466,0.118672
0.007467,0.117422
0.007468,0.117422
0.007469,0.121172
0.00747,0.118672
0.007471,0.121172
0.007472,0.121172
0.007473,0.118672
0.007474,0.121172
0.007475,0.124922
0.007476,0.122422
0.007477,0.119922
0.007478,0.119922
0.007479,0.119922
0.00748,0.119922
0.007481,0.122422
0.007482,0.123672
0.007483,0.121172
0.007484,0.121172
0.007485,0.121172
0.007486,0.124922
0.007487,0.121172
0.007488,0.123672
0.007489,0.123672
0.00749,0.122422
0.007491,0.122422
0.007492,0.123672
0.007493,0.121172
0.007494,0.124922
0.007495,0.123672
0.007496,0.127422
0.007497,0.123672
0.007498,0.124922
0.007499,0.124922
0.0075,0.123672
0.007501,0.123672
0.007502,0.127422
0.007503,0.123672
0.007504,0.124922
0.007505,0.122422
0.007506,0.118672
0.007507,0.123672
0.007508,0.123672
0.007509,0.123672
0.00751,0.127422
0.007511,0.123672
0.007512,0.122422
0.007513,0.121172
0.007514,0.123672
0.007515,0.122422
0.007516,0.123672
0.007517,0.123672
0.007518,0.124922
0.007519,0.123672
0.00752,0.122422
0.007521,0.119922
0.007522,0.121172
0.007523,0.121172
0.007524,0.122422
0.007525,0.119922
0.007526,0.119922
0.007527,0.119922
0.007528,0.122422
0.007529,0.118672
0.00753,0.122422
0.007531,0.123672
0.007532,0.121172
0.007533,0.119922
0.007534,0.121172
0.007535,0.121172
0.007536,0.122422
0.007537,0.121172
0.007538,0.118672
0.007539,0.118672
0.00754,0.119922
0.007541,0.117422
0.007542,0.117422
0.007543,0.114922
0.007544,0.117422
0.007545,0.116172
0.007546,0.117422
0.007547,0.116172
0.007548,0.116172
0.007549,0.114922
0.00755,0.116172
0.007551,0.113672
0.007552,0.113672
0.007553,0.113672
0.007554,0.113672
0.007555,0.112422
0.007556,0.112422
0.007557,0.112422
0.007558,0.112422
0.007559,0.112422
0.00756,0.108672
0.007561,0.104922
0.007562,0.109922
0.007563,0.108672
0.007564,0.109922
0.007565,0.107422
0.007566,0.106172
0.007567,0.106172
0.007568,0.106172
0.007569,0.108672
0.00757,0.107422
0.007571,0.107422
0.007572,0.104922
0.007573,0.103672
0.007574,0.104922
0.007575,0.106172
0.007576,0.103672
0.007577,0.104922
0.007578,0.103672
0.007579,0.104922
0.00758,0.104922
0.007581,0.099922
0.007582,0.101172
0.007583,0.102422
0.007584,0.098672
0.007585,0.098672
0.007586,0.098672
0.007587,0.098672
0.007588,0.098672
0.007589,0.096172
0.00759,0.094922
0.007591,0.094922
0.007592,0.097422
0.007593,0.096172
0.007594,0.097422
0.007595,0.093672
0.007596,0.094922
0.007597,0.094922
0.007598,0.092422
0.007599,0.093672
0.0076,0.093672
0.007601,0.091172
0.007602,0.094922
0.007603,0.091172
0.007604,0.088672
0.007605,0.092422
0.007606,0.089922
0.007607,0.089922
0.007608,0.089922
0.007609,0.089922
0.00761,0.089922
0.007611,0.089922
0.007612,0.084922
0.007613,0.083672
0.007614,0.086172
0.007615,0.086172
0.007616,0.089922
0.007617,0.086172
0.007618,0.082422
0.007619,0.084922
0.00762,0.084922
0.007621,0.081172
0.007622,0.083672
0.007623,0.086172
0.007624,0.081172
0.007625,0.084922
0.007626,0.081172
0.007627,0.081172
0.007628,0.079922
0.007629,0.081172
0.00763,0.079922
0.007631,0.079922
0.007632,0.077422
0.007633,0.079922
0.007634,0.078672
0.007635,0.079922
0.007636,0.074922
0.007637,0.074922
0.007638,0.078672
0.007639,0.076172
0.00764,0.074922
0.007641,0.078672
0.007642,0.074922
0.007643,0.073672
0.007644,0.076172
0.007645,0.076172
0.007646,0.071172
0.007647,0.078672
0.007648,0.076172
0.007649,0.072422
0.00765,0.073672
0.007651,0.072422
0.007652,0.071172
0.007653,0.074922
0.007654,0.074922
0.007655,0.072422
0.007656,0.069922
0.007657,0.069922
0.007658,0.069922
0.007659,0.072422
0.00766,0.068672
0.007661,0.068672
0.007662,0.069922
0.007663,0.067422
0.007664,0.068672
0.007665,0.068672
0.007666,0.069922
0.007667,0.066172
0.007668,0.069922
0.007669,0.063672
0.00767,0.067422
0.007671,0.066172
0.007672,0.067422
0.007673,0.064922
0.007674,0.067422
0.007675,0.066172
0.007676,0.066172
0.007677,0.066172
0.007678,0.068672
0.007679,0.066172
0.00768,0.064922
0.007681,0.063672
0.007682,0.061172
0.007683,0.061172
0.007684,0.062422
0.007685,0.062422
0.007686,0.064922
0.007687,0.062422
0.007688,0.061172
0.007689,0.061172
0.00769,0.062422
0.007691,0.061172
0.007692,0.062422
0.007693,0.062422
0.007694,0.062422
0.007695,0.061172
0.007696,0.061172
0.007697,0.057422
0.007698,0.058672
0.007699,0.062422
0.0077,0.058672
0.007701,0.058672
0.007702,0.062422
0.007703,0.059922
0.007704,0.058672
0.007705,0.057422
0.007706,0.058672
0.007707,0.059922
0.007708,0.058672
0.007709,0.057422
0.00771,0.056172
0.007711,0.061172
0.007712,0.057422
0.007713,0.057422
0.007714,0.057422
0.007715,0.056172
0.007716,0.056172
0.007717,0.056172
0.007718,0.053672
0.007719,0.057422
0.00772,0.053672
0.007721,0.056172
0.007722,0.057422
0.007723,0.056172
0.007724,0.056172
0.007725,0.053672
0.007726,0.054922
0.007727,0.058672
0.007728,0.053672
0.007729,0.054922
0.00773,0.054922
0.007731,0.054922
0.007732,0.056172
0.007733,0.054922
0.007734,0.052422
0.007735,0.054922
0.007736,0.052422
0.007737,0.051172
0.007738,0.048672
0.007739,0.051172
0.00774,0.053672
0.007741,0.049922
0.007742,0.049922
0.007743,0.054922
0.007744,0.053672
0.007745,0.051172
0.007746,0.051172
0.007747,0.051172
0.007748,0.051172
0.007749,0.049922
0.00775,0.053672
0.007751,0.052422
0.007752,0.047422
0.007753,0.051172
0.007754,0.049922
0.007755,0.052422
0.007756,0.052422
0.007757,0.049922
0.007758,0.049922
0.007759,0.048672
0.00776,0.048672
0.007761,0.047422
0.007762,0.048672
0.007763,0.051172
0.007764,0.048672
0.007765,0.046172
0.007766,0.048672
0.007767,0.051172
0.007768,0.049922
0.007769,0.048672
0.00777,0.048672
0.007771,0.051172
0.007772,0.051172
0.007773,0.048672
0.007774,0.049922
0.007775,0.047422
0.007776,0.051172
0.007777,0.048672
0.007778,0.047422
0.007779,0.047422
0.00778,0.046172
0.007781,0.048672
0.007782,0.049922
0.007783,0.047422
0.007784,0.049922
0.007785,0.048672
0.007786,0.048672
0.007787,0.051172
0.007788,0.048672
0.007789,0.047422
0.00779,0.043672
0.007791,0.048672
0.007792,0.046172
0.007793,0.048672
0.007794,0.044922
0.007795,0.046172
0.007796,0.048672
0.007797,0.043672
0.007798,0.048672
0.007799,0.046172
0.0078,0.048672
0.007801,0.047422
0.007802,0.044922
0.007803,0.044922
0.007804,0.046172
0.007805,0.046172
0.007806,0.046172
0.007807,0.046172
0.007808,0.044922
0.007809,0.043672
0.00781,0.043672
0.007811,0.044922
0.007812,0.048672
0.007813,0.044922
0.007814,0.047422
0.007815,0.044922
0.007816,0.048672
0.007817,0.043672
0.007818,0.047422
0.007819,0.047422
0.00782,0.048672
0.007821,0.042422
0.007822,0.047422
0.007823,0.048672
0.007824,0.046172
0.007825,0.046172
0.007826,0.044922
0.007827,0.044922
0.007828,0.047422
0.007829,0.043672
0.00783,0.047422
0.007831,0.043672
0.007832,0.043672
0.007833,0.043672
0.007834,0.046172
0.007835,0.044922
0.007836,0.046172
0.007837,0.042422
0.007838,0.046172
0.007839,0.044922
0.00784,0.046172
0.007841,0.043672
0.007842,0.043672
0.007843,0.044922
0.007844,0.044922
0.007845,0.044922
0.007846,0.043672
0.007847,0.047422
0.007848,0.043672
0.007849,0.044922
0.00785,0.044922
0.007851,0.043672
0.007852,0.042422
0.007853,0.044922
0.007854,0.044922
0.007855,0.044922
0.007856,0.043672
0.007857,0.044922
0.007858,0.039922
0.007859,0.044922
0.00786,0.044922
0.007861,0.041172
0.007862,0.046172
0.007863,0.046172
0.007864,0.043672
0.007865,0.042422
0.007866,0.042422
0.007867,0.043672
0.007868,0.042422
0.007869,0.047422
0.00787,0.043672
0.007871,0.041172
0.007872,0.044922
0.007873,0.044922
0.007874,0.046172
0.007875,0.044922
0.007876,0.044922
0.007877,0.042422
0.007878,0.042422
0.007879,0.043672
0.00788,0.043672
0.007881,0.042422
0.007882,0.044922
0.007883,0.042422
0.007884,0.044922
0.007885,0.043672
0.007886,0.044922
0.007887,0.042422
0.007888,0.044922
0.007889,0.041172
0.00789,0.041172
0.007891,0.042422
0.007892,0.041172
0.007893,0.042422
0.007894,0.044922
0.007895,0.042422
0.007896,0.039922
0.007897,0.046172
0.007898,0.038672
0.007899,0.046172
0.0079,0.044922
0.007901,0.044922
0.007902,0.044922
0.007903,0.044922
0.007904,0.043672
0.007905,0.043672
0.007906,0.043672
0.007907,0.041172
0.007908,0.046172
0.007909,0.039922
0.00791,0.043672
0.007911,0.043672
0.007912,0.044922
0.007913,0.047422
0.007914,0.042422
0.007915,0.042422
0.007916,0.043672
0.007917,0.042422
0.007918,0.046172
0.007919,0.046172
0.00792,0.044922
0.007921,0.043672
0.007922,0.047422
0.007923,0.046172
0.007924,0.041172
0.007925,0.042422
0.007926,0.047422
0.007927,0.043672
0.007928,0.043672
0.007929,0.046172
0.00793,0.043672
0.007931,0.047422
0.007932,0.043672
0.007933,0.046172
0.007934,0.043672
0.007935,0.042422
0.007936,0.043672
0.007937,0.043672
0.007938,0.044922
0.007939,0.044922
0.00794,0.044922
0.007941,0.042422
0.007942,0.042422
0.007943,0.044922
0.007944,0.046172
0.007945,0.042422
0.007946,0.043672
0.007947,0.047422
0.007948,0.042422
0.007949,0.042422
0.00795,0.043672
0.007951,0.042422
0.007952,0.042422
0.007953,0.042422
0.007954,0.044922
0.007955,0.044922
0.007956,0.047422
0.007957,0.046172
0.007958,0.043672
0.007959,0.042422
0.00796,0.042422
0.007961,0.043672
0.007962,0.044922
0.007963,0.047422
0.007964,0.042422
0.007965,0.046172
0.007966,0.046172
0.007967,0.046172
0.007968,0.043672
0.007969,0.043672
0.00797,0.043672
0.007971,0.043672
0.007972,0.046172
0.007973,0.043672
0.007974,0.043672
0.007975,0.046172
0.007976,0.042422
0.007977,0.044922
0.007978,0.046172
0.007979,0.044922
0.00798,0.044922
0.007981,0.042422
0.007982,0.046172
0.007983,0.043672
0.007984,0.039922
0.007985,0.044922
0.007986,0.044922
0.007987,0.046172
0.007988,0.043672
0.007989,0.043672
0.00799,0.044922
0.007991,0.048672
0.007992,0.043672
0.007993,0.043672
0.007994,0.042422
0.007995,0.046172
0.007996,0.047422
0.007997,0.041172
0.007998,0.043672
0.007999,0.048672
0.008,0.047422
0.008001,0.044922
0.008002,0.044922
0.008003,0.044922
0.008004,0.043672
0.008005,0.046172
0.008006,0.043672
0.008007,0.046172
0.008008,0.048672
0.008009,0.044922
0.00801,0.046172
0.008011,0.046172
0.008012,0.041172
0.008013,0.044922
0.008014,0.051172
0.008015,0.046172
0.008016,0.044922
0.008017,0.048672
0.008018,0.042422
0.008019,0.044922
0.00802,0.046172
0.008021,0.047422
0.008022,0.047422
0.008023,0.044922
0.008024,0.048672
0.008025,0.044922
0.008026,0.049922
0.008027,0.046172
0.008028,0.047422
0.008029,0.048672
0.00803,0.048672
0.008031,0.048672
0.008032,0.046172
0.008033,0.048672
0.008034,0.047422
0.008035,0.048672
0.008036,0.047422
0.008037,0.043672
0.008038,0.046172
0.008039,0.046172
0.00804,0.044922
0.008041,0.046172
0.008042,0.047422
0.008043,0.047422
0.008044,0.048672
0.008045,0.047422
0.008046,0.046172
0.008047,0.043672
0.008048,0.044922
0.008049,0.044922
0.00805,0.048672
0.008051,0.047422
0.008052,0.047422
0.008053,0.048672
0.008054,0.046172
0.008055,0.052422
0.008056,0.048672
0.008057,0.047422
0.008058,0.048672
0.008059,0.047422
0.00806,0.046172
0.008061,0.046172
0.008062,0.047422
0.008063,0.051172
0.008064,0.049922
0.008065,0.049922
0.008066,0.047422
0.008067,0.049922
0.008068,0.047422
0.008069,0.047422
0.00807,0.047422
0.008071,0.047422
0.008072,0.046172
0.008073,0.051172
0.008074,0.046172
0.008075,0.047422
0.008076,0.049922
0.008077,0.048672
0.008078,0.048672
0.008079,0.049922
0.00808,0.048672
0.008081,0.047422
0.008082,0.048672
0.008083,0.048672
0.008084,0.049922
0.008085,0.046172
0.008086,0.047422
0.008087,0.046172
0.008088,0.051172
0.008089,0.048672
0.00809,0.049922
0.008091,0.051172
0.008092,0.048672
0.008093,0.051172
0.008094,0.048672
0.008095,0.047422
0.008096,0.047422
0.008097,0.049922
0.008098,0.047422
0.008099,0.047422
0.0081,0.051172
0.008101,0.046172
0.008102,0.049922
0.008103,0.047422
0.008104,0.048672
0.008105,0.051172
0.008106,0.044922
0.008107,0.049922
0.008108,0.048672
0.008109,0.047422
0.00811,0.044922
0.008111,0.051172
0.008112,0.046172
0.008113,0.051172
0.008114,0.052422
0.008115,0.049922
0.008116,0.052422
0.008117,0.052422
0.008118,0.051172
0.008119,0.053672
0.00812,0.053672
0.008121,0.051172
0.008122,0.047422
0.008123,0.052422
0.008124,0.056172
0.008125,0.047422
0.008126,0.053672
0.008127,0.052422
0.008128,0.052422
0.008129,0.053672
0.00813,0.051172
0.008131,0.052422
0.008132,0.051172
0.008133,0.051172
0.008134,0.052422
0.008135,0.051172
0.008136,0.053672
0.008137,0.049922
0.008138,0.053672
0.008139,0.057422
0.00814,0.054922
0.008141,0.051172
0.008142,0.053672
0.008143,0.049922
0.008144,0.051172
0.008145,0.052422
0.008146,0.051172
0.008147,0.053672
0.008148,0.053672
0.008149,0.053672
0.00815,0.053672
0.008151,0.052422
0.008152,0.052422
0.008153,0.049922
0.008154,0.051172
0.008155,0.053672
0.008156,0.052422
0.008157,0.051172
0.008158,0.056172
0.008159,0.052422
0.00816,0.056172
0.008161,0.054922
0.008162,0.053672
0.008163,0.053672
0.008164,0.051172
0.008165,0.053672
0.008166,0.054922
0.008167,0.053672
0.008168,0.056172
0.008169,0.053672
0.00817,0.054922
0.008171,0.052422
0.008172,0.053672
0.008173,0.054922
0.008174,0.051172
0.008175,0.054922
0.008176,0.053672
0.008177,0.057422
0.008178,0.053672
0.008179,0.057422
0.00818,0.053672
0.008181,0.049922
0.008182,0.053672
0.008183,0.053672
0.008184,0.052422
0.008185,0.052422
0.008186,0.057422
0.008187,0.053672
0.008188,0.054922
0.008189,0.054922
0.00819,0.054922
0.008191,0.052422
0.008192,0.059922
0.008193,0.054922
0.008194,0.057422
0.008195,0.053672
0.008196,0.054922
0.008197,0.054922
0.008198,0.053672
0.008199,0.053672
0.0082,0.057422
0.008201,0.056172
0.008202,0.056172
0.008203,0.056172
0.008204,0.054922
0.008205,0.057422
0.008206,0.056172
0.008207,0.056172
0.008208,0.053672
0.008209,0.053672
0.00821,0.059922
0.008211,0.058672
0.008212,0.056172
0.008213,0.057422
0.008214,0.057422
0.008215,0.056172
0.008216,0.056172
0.008217,0.056172
0.008218,0.057422
0.008219,0.054922
0.00822,0.054922
0.008221,0.056172
0.008222,0.057422
0.008223,0.057422
0.008224,0.056172
0.008225,0.054922
0.008226,0.057422
0.008227,0.054922
0.008228,0.054922
0.008229,0.058672
0.00823,0.057422
0.008231,0.058672
0.008232,0.057422
0.008233,0.057422
0.008234,0.057422
0.008235,0.059922
0.008236,0.059922
0.008237,0.054922
0.008238,0.059922
0.008239,0.058672
0.00824,0.059922
0.008241,0.057422
0.008242,0.058672
0.008243,0.053672
0.008244,0.061172
0.008245,0.053672
0.008246,0.059922
0.008247,0.058672
0.008248,0.061172
0.008249,0.056172
0.00825,0.062422
0.008251,0.058672
0.008252,0.058672
0.008253,0.059922
0.008254,0.059922
0.008255,0.057422
0.008256,0.056172
0.008257,0.058672
0.008258,0.059922
0.008259,0.061172
0.00826,0.059922
0.008261,0.058672
0.008262,0.057422
0.008263,0.059922
0.008264,0.057422
0.008265,0.054922
0.008266,0.056172
0.008267,0.057422
0.008268,0.059922
0.008269,0.059922
0.00827,0.059922
0.008271,0.058672
0.008272,0.061172
0.008273,0.057422
0.008274,0.062422
0.008275,0.057422
0.008276,0.061172
0.008277,0.059922
0.008278,0.059922
0.008279,0.061172
0.00828,0.061172
0.008281,0.057422
0.008282,0.061172
0.008283,0.057422
0.008284,0.059922
0.008285,0.058672
0.008286,0.058672
0.008287,0.061172
0.008288,0.061172
0.008289,0.059922
0.00829,0.062422
0.008291,0.062422
0.008292,0.059922
0.008293,0.061172
0.008294,0.059922
0.008295,0.061172
0.008296,0.061172
0.008297,0.061172
0.008298,0.061172
0.008299,0.059922
0.0083,0.063672
0.008301,0.062422
0.008302,0.063672
0.008303,0.063672
0.008304,0.063672
0.008305,0.064922
0.008306,0.062422
0.008307,0.062422
0.008308,0.063672
0.008309,0.063672
0.00831,0.062422
0.008311,0.063672
0.008312,0.063672
0.008313,0.063672
0.008314,0.066172
0.008315,0.064922
0.008316,0.066172
0.008317,0.063672
0.008318,0.061172
0.008319,0.064922
0.00832,0.068672
0.008321,0.063672
0.008322,0.067422
0.008323,0.067422
0.008324,0.067422
0.008325,0.066172
0.008326,0.067422
0.008327,0.062422
0.008328,0.069922
0.008329,0.066172
0.00833,0.064922
0.008331,0.068672
0.008332,0.066172
0.008333,0.067422
0.008334,0.068672
0.008335,0.069922
0.008336,0.063672
0.008337,0.066172
0.008338,0.072422
0.008339,0.069922
0.00834,0.069922
0.008341,0.067422
0.008342,0.072422
0.008343,0.068672
0.008344,0.073672
0.008345,0.068672
0.008346,0.068672
0.008347,0.073672
0.008348,0.071172
0.008349,0.073672
0.00835,0.069922
0.008351,0.073672
0.008352,0.073672
0.008353,0.076172
0.008354,0.072422
0.008355,0.073672
0.008356,0.072422
0.008357,0.074922
0.008358,0.076172
0.008359,0.077422
0.00836,0.076172
0.008361,0.073672
0.008362,0.072422
0.008363,0.076172
0.008364,0.074922
0.008365,0.073672
0.008366,0.078672
0.008367,0.076172
0.008368,0.078672
0.008369,0.076172
0.00837,0.074922
0.008371,0.078672
0.008372,0.077422
0.008373,0.076172
0.008374,0.081172
0.008375,0.081172
0.008376,0.079922
0.008377,0.078672
0.008378,0.082422
0.008379,0.084922
0.00838,0.083672
0.008381,0.083672
0.008382,0.083672
0.008383,0.083672
0.008384,0.081172
0.008385,0.087422
0.008386,0.087422
0.008387,0.087422
0.008388,0.084922
0.008389,0.086172
0.00839,0.087422
0.008391,0.086172
0.008392,0.087422
0.008393,0.083672
0.008394,0.089922
0.008395,0.088672
0.008396,0.089922
0.008397,0.088672
0.008398,0.089922
0.008399,0.089922
0.0084,0.089922
0.008401,0.089922
0.008402,0.088672
0.008403,0.088672
0.008404,0.091172
0.008405,0.089922
0.008406,0.094922
0.008407,0.092422
0.008408,0.092422
0.008409,0.094922
0.00841,0.098672
0.008411,0.097422
0.008412,0.098672
0.008413,0.094922
0.008414,0.094922
0.008415,0.097422
0.008416,0.098672
0.008417,0.096172
0.008418,0.099922
0.008419,0.096172
0.00842,0.099922
0.008421,0.096172
0.008422,0.102422
0.008423,0.102422
0.008424,0.099922
0.008425,0.103672
0.008426,0.102422
0.008427,0.103672
0.008428,0.103672
0.008429,0.104922
0.00843,0.103672
0.008431,0.104922
0.008432,0.102422
0.008433,0.107422
0.008434,0.107422
0.008435,0.106172
0.008436,0.107422
0.008437,0.107422
0.008438,0.104922
0.008439,0.108672
0.00844,0.109922
0.008441,0.106172
0.008442,0.111172
0.008443,0.104922
0.008444,0.109922
0.008445,0.108672
0.008446,0.107422
0.008447,0.107422
0.008448,0.112422
0.008449,0.113672
0.00845,0.112422
0.008451,0.112422
0.008452,0.114922
0.008453,0.113672
0.008454,0.114922
0.008455,0.112422
0.008456,0.112422
0.008457,0.113672
0.008458,0.114922
0.008459,0.117422
0.00846,0.116172
0.008461,0.113672
0.008462,0.118672
0.008463,0.117422
0.008464,0.118672
0.008465,0.117422
0.008466,0.119922
0.008467,0.119922
0.008468,0.117422
0.008469,0.114922
0.00847,0.118672
0.008471,0.118672
0.008472,0.121172
0.008473,0.119922
0.008474,0.119922
0.008475,0.121172
0.008476,0.118672
0.008477,0.121172
0.008478,0.119922
0.008479,0.122422
0.00848,0.121172
0.008481,0.118672
0.008482,0.118672
0.008483,0.122422
0.008484,0.121172
0.008485,0.122422
0.008486,0.118672
0.008487,0.123672
0.008488,0.119922
0.008489,0.123672
0.00849,0.123672
0.008491,0.124922
0.008492,0.123672
0.008493,0.122422
0.008494,0.122422
0.008495,0.123672
0.008496,0.122422
0.008497,0.122422
0.008498,0.123672
0.008499,0.123672
0.0085,0.124922
0.008501,0.123672
0.008502,0.121172
0.008503,0.123672
0.008504,0.122422
0.008505,0.119922
0.008506,0.121172
0.008507,0.123672
0.008508,0.123672
0.008509,0.122422
0.00851,0.123672
0.008511,0.118672
0.008512,0.123672
0.008513,0.122422
0.008514,0.119922
0.008515,0.123672
0.008516,0.119922
0.008517,0.122422
0.008518,0.121172
0.008519,0.123672
0.00852,0.122422
0.008521,0.121172
0.008522,0.118672
0.008523,0.122422
0.008524,0.119922
0.008525,0.118672
0.008526,0.122422
0.008527,0.123672
0.008528,0.122422
0.008529,0.116172
0.00853,0.117422
0.008531,0.117422
0.008532,0.119922
0.008533,0.118672
0.008534,0.117422
0.008535,0.117422
0.008536,0.119922
0.008537,0.119922
0.008538,0.117422
0.008539,0.117422
0.00854,0.122422
0.008541,0.118672
0.008542,0.116172
0.008543,0.119922
0.008544,0.117422
0.008545,0.113672
0.008546,0.114922
0.008547,0.116172
0.008548,0.116172
0.008549,0.114922
0.00855,0.111172
0.008551,0.114922
0.008552,0.113672
0.008553,0.113672
0.008554,0.112422
0.008555,0.116172
0.008556,0.111172
0.008557,0.113672
0.008558,0.109922
0.008559,0.111172
0.00856,0.108672
0.008561,0.112422
0.008562,0.109922
0.008563,0.108672
0.008564,0.107422
0.008565,0.104922
0.008566,0.109922
0.008567,0.106172
0.008568,0.107422
0.008569,0.106172
0.00857,0.107422
0.008571,0.104922
0.008572,0.107422
0.008573,0.102422
0.008574,0.103672
0.008575,0.104922
0.008576,0.103672
0.008577,0.102422
0.008578,0.106172
0.008579,0.103672
0.00858,0.103672
0.008581,0.101172
0.008582,0.099922
0.008583,0.101172
0.008584,0.101172
0.008585,0.098672
0.008586,0.101172
0.008587,0.098672
0.008588,0.098672
0.008589,0.096172
0.00859,0.097422
0.008591,0.096172
0.008592,0.097422
0.008593,0.096172
0.008594,0.094922
0.008595,0.093672
0.008596,0.094922
0.008597,0.092422
0.008598,0.092422
0.008599,0.097422
0.0086,0.089922
0.008601,0.091172
0.008602,0.089922
0.008603,0.091172
0.008604,0.089922
0.008605,0.092422
0.008606,0.089922
0.008607,0.088672
0.008608,0.089922
0.008609,0.088672
0.00861,0.087422
0.008611,0.088672
0.008612,0.086172
0.008613,0.083672
0.008614,0.084922
0.008615,0.088672
0.008616,0.086172
0.008617,0.083672
0.008618,0.084922
0.008619,0.084922
0.00862,0.087422
0.008621,0.084922
0.008622,0.082422
0.008623,0.083672
0.008624,0.082422
0.008625,0.082422
0.008626,0.083672
0.008627,0.081172
0.008628,0.078672
0.008629,0.078672
0.00863,0.081172
0.008631,0.079922
0.008632,0.081172
0.008633,0.077422
0.008634,0.082422
0.008635,0.079922
0.008636,0.076172
0.008637,0.077422
0.008638,0.076172
0.008639,0.077422
0.00864,0.076172
0.008641,0.074922
0.008642,0.078672
0.008643,0.077422
0.008644,0.071172
0.008645,0.074922
0.008646,0.074922
0.008647,0.072422
0.008648,0.077422
0.008649,0.076172
0.00865,0.074922
0.008651,0.074922
0.008652,0.074922
0.008653,0.073672
0.008654,0.068672
0.008655,0.072422
0.008656,0.071172
0.008657,0.071172
0.008658,0.073672
0.008659,0.072422
0.00866,0.071172
0.008661,0.072422
0.008662,0.071172
0.008663,0.071172
0.008664,0.068672
0.008665,0.069922
0.008666,0.068672
0.008667,0.068672
0.008668,0.068672
0.008669,0.068672
0.00867,0.068672
0.008671,0.066172
0.008672,0.069922
0.008673,0.064922
0.008674,0.066172
0.008675,0.067422
0.008676,0.064922
0.008677,0.064922
0.008678,0.064922
0.008679,0.064922
0.00868,0.064922
0.008681,0.063672
0.008682,0.063672
0.008683,0.064922
0.008684,0.062422
0.008685,0.063672
0.008686,0.063672
0.008687,0.061172
0.008688,0.059922
0.008689,0.063672
0.00869,0.059922
0.008691,0.058672
0.008692,0.059922
0.008693,0.059922
0.008694,0.058672
0.008695,0.061172
0.008696,0.058672
0.008697,0.058672
0.008698,0.058672
0.008699,0.058672
0.0087,0.057422
0.008701,0.058672
0.008702,0.058672
0.008703,0.059922
0.008704,0.056172
0.008705,0.058672
0.008706,0.057422
0.008707,0.059922
0.008708,0.058672
0.008709,0.057422
0.00871,0.054922
0.008711,0.054922
0.008712,0.058672
0.008713,0.056172
0.008714,0.054922
0.008715,0.056172
0.008716,0.057422
0.008717,0.053672
0.008718,0.053672
0.008719,0.057422
0.00872,0.056172
0.008721,0.057422
0.008722,0.057422
0.008723,0.056172
0.008724,0.051172
0.008725,0.054922
0.008726,0.059922
0.008727,0.057422
0.008728,0.058672
0.008729,0.053672
0.00873,0.059922
0.008731,0.054922
0.008732,0.057422
0.008733,0.053672
0.008734,0.052422
0.008735,0.056172
0.008736,0.049922
0.008737,0.052422
0.008738,0.052422
0.008739,0.056172
0.00874,0.054922
0.008741,0.052422
0.008742,0.049922
0.008743,0.052422
0.008744,0.054922
0.008745,0.049922
0.008746,0.052422
0.008747,0.052422
0.008748,0.051172
0.008749,0.049922
0.00875,0.048672
0.008751,0.053672
0.008752,0.053672
0.008753,0.048672
0.008754,0.053672
0.008755,0.052422
0.008756,0.052422
0.008757,0.053672
0.008758,0.049922
0.008759,0.053672
0.00876,0.052422
0.008761,0.047422
0.008762,0.047422
0.008763,0.049922
0.008764,0.049922
0.008765,0.048672
0.008766,0.053672
0.008767,0.047422
0.008768,0.049922
0.008769,0.046172
0.00877,0.053672
0.008771,0.048672
0.008772,0.048672
0.008773,0.052422
0.008774,0.051172
0.008775,0.052422
0.008776,0.046172
0.008777,0.048672
0.008778,0.049922
0.008779,0.044922
0.00878,0.048672
0.008781,0.048672
0.008782,0.047422
0.008783,0.049922
0.008784,0.052422
0.008785,0.046172
0.008786,0.049922
0.008787,0.048672
0.008788,0.046172
0.008789,0.047422
0.00879,0.047422
0.008791,0.046172
0.008792,0.048672
0.008793,0.044922
0.008794,0.047422
0.008795,0.047422
0.008796,0.046172
0.008797,0.047422
0.008798,0.048672
0.008799,0.044922
0.0088,0.044922
0.008801,0.044922
0.008802,0.044922
0.008803,0.046172
0.008804,0.044922
0.008805,0.047422
0.008806,0.046172
0.008807,0.044922
0.008808,0.044922
0.008809,0.041172
0.00881,0.046172
0.008811,0.044922
0.008812,0.046172
0.008813,0.043672
0.008814,0.046172
0.008815,0.047422
0.008816,0.046172
0.008817,0.044922
0.008818,0.047422
0.008819,0.048672
0.00882,0.046172
0.008821,0.044922
0.008822,0.046172
0.008823,0.043672
0.008824,0.047422
0.008825,0.044922
0.008826,0.049922
0.008827,0.042422
0.008828,0.043672
0.008829,0.046172
0.00883,0.044922
0.008831,0.046172
0.008832,0.046172
0.008833,0.043672
0.008834,0.047422
0.008835,0.044922
0.008836,0.043672
0.008837,0.042422
0.008838,0.044922
0.008839,0.046172
0.00884,0.046172
0.008841,0.046172
0.008842,0.042422
0.008843,0.043672
0.008844,0.042422
0.008845,0.043672
0.008846,0.046172
0.008847,0.044922
0.008848,0.043672
0.008849,0.046172
0.00885,0.044922
0.008851,0.046172
0.008852,0.044922
0.008853,0.043672
0.008854,0.042422
0.008855,0.046172
0.008856,0.041172
0.008857,0.039922
0.008858,0.043672
0.008859,0.046172
0.00886,0.043672
0.008861,0.043672
0.008862,0.044922
0.008863,0.044922
0.008864,0.044922
0.008865,0.043672
0.008866,0.042422
0.008867,0.044922
0.008868,0.046172
0.008869,0.044922
0.00887,0.044922
0.008871,0.043672
0.008872,0.041172
0.008873,0.043672
0.008874,0.043672
0.008875,0.044922
0.008876,0.046172
0.008877,0.046172
0.008878,0.044922
0.008879,0.047422
0.00888,0.044922
0.008881,0.043672
0.008882,0.047422
0.008883,0.046172
0.008884,0.043672
0.008885,0.043672
0.008886,0.043672
0.008887,0.046172
0.008888,0.041172
0.008889,0.042422
0.00889,0.043672
0.008891,0.043672
0.008892,0.046172
0.008893,0.047422
0.008894,0.042422
0.008895,0.044922
0.008896,0.043672
0.008897,0.042422
0.008898,0.041172
0.008899,0.044922
0.0089,0.042422
0.008901,0.044922
0.008902,0.041172
0.008903,0.044922
0.008904,0.043672
0.008905,0.041172
0.008906,0.047422
0.008907,0.044922
0.008908,0.044922
0.008909,0.043672
0.00891,0.044922
0.008911,0.043672
0.008912,0.041172
0.008913,0.042422
0.008914,0.043672
0.008915,0.043672
0.008916,0.043672
0.008917,0.041172
0.008918,0.043672
0.008919,0.043672
0.00892,0.041172
0.008921,0.042422
0.008922,0.042422
0.008923,0.044922
0.008924,0.044922
0.008925,0.043672
0.008926,0.044922
0.008927,0.046172
0.008928,0.044922
0.008929,0.042422
0.00893,0.044922
0.008931,0.043672
0.008932,0.042422
0.008933,0.041172
0.008934,0.042422
0.008935,0.044922
0.008936,0.042422
0.008937,0.043672
0.008938,0.042422
0.008939,0.043672
0.00894,0.046172
0.008941,0.043672
0.008942,0.044922
0.008943,0.044922
0.008944,0.047422
0.008945,0.044922
0.008946,0.044922
0.008947,0.046172
0.008948,0.043672
0.008949,0.047422
0.00895,0.047422
0.008951,0.043672
0.008952,0.046172
0.008953,0.047422
0.008954,0.046172
0.008955,0.047422
0.008956,0.041172
0.008957,0.043672
0.008958,0.046172
0.008959,0.043672
0.00896,0.043672
0.008961,0.044922
0.008962,0.043672
0.008963,0.043672
0.008964,0.043672
0.008965,0.042422
0.008966,0.046172
0.008967,0.043672
0.008968,0.043672
0.008969,0.044922
0.00897,0.044922
0.008971,0.046172
0.008972,0.044922
0.008973,0.041172
0.008974,0.044922
0.008975,0.046172
0.008976,0.044922
0.008977,0.044922
0.008978,0.044922
0.008979,0.043672
0.00898,0.043672
0.008981,0.041172
0.008982,0.044922
0.008983,0.044922
0.008984,0.043672
0.008985,0.046172
0.008986,0.043672
0.008987,0.043672
0.008988,0.048672
0.008989,0.043672
0.00899,0.046172
0.008991,0.044922
0.008992,0.047422
0.008993,0.044922
0.008994,0.043672
0.008995,0.046172
0.008996,0.046172
0.008997,0.043672
0.008998,0.048672
0.008999,0.043672
0.009,0.046172
0.009001,0.046172
0.009002,0.047422
0.009003,0.046172
0.009004,0.044922
0.009005,0.046172
0.009006,0.044922
0.009007,0.048672
0.009008,0.044922
0.009009,0.046172
0.00901,0.046172
0.009011,0.043672
0.009012,0.044922
0.009013,0.046172
0.009014,0.048672
0.009015,0.046172
0.009016,0.043672
0.009017,0.044922
0.009018,0.046172
0.009019,0.044922
0.00902,0.049922
0.009021,0.044922
0.009022,0.047422
0.009023,0.046172
0.009024,0.046172
0.009025,0.042422
0.009026,0.043672
0.009027,0.046172
0.009028,0.049922
0.009029,0.047422
0.00903,0.044922
0.009031,0.046172
0.009032,0.044922
0.009033,0.044922
0.009034,0.047422
0.009035,0.047422
0.009036,0.044922
0.009037,0.044922
0.009038,0.046172
0.009039,0.047422
0.00904,0.044922
0.009041,0.044922
0.009042,0.047422
0.009043,0.046172
0.009044,0.047422
0.009045,0.046172
0.009046,0.048672
0.009047,0.046172
0.009048,0.048672
0.009049,0.048672
0.00905,0.043672
0.009051,0.047422
0.009052,0.049922
0.009053,0.048672
0.009054,0.046172
0.009055,0.049922
0.009056,0.048672
0.009057,0.046172
0.009058,0.047422
0.009059,0.048672
0.00906,0.044922
0.009061,0.047422
0.009062,0.047422
0.009063,0.048672
0.009064,0.046172
0.009065,0.046172
0.009066,0.049922
0.009067,0.051172
0.009068,0.052422
0.009069,0.044922
0.00907,0.047422
0.009071,0.048672
0.009072,0.049922
0.009073,0.044922
0.009074,0.048672
0.009075,0.048672
0.009076,0.052422
0.009077,0.047422
0.009078,0.052422
0.009079,0.048672
0.00908,0.047422
0.009081,0.051172
0.009082,0.047422
0.009083,0.048672
0.009084,0.051172
0.009085,0.044922
0.009086,0.048672
0.009087,0.048672
0.009088,0.048672
0.009089,0.046172
0.00909,0.052422
0.009091,0.051172
0.009092,0.047422
0.009093,0.047422
0.009094,0.048672
0.009095,0.052422
0.009096,0.048672
0.009097,0.051172
0.009098,0.052422
0.009099,0.051172
0.0091,0.051172
0.009101,0.044922
0.009102,0.052422
0.009103,0.046172
0.009104,0.048672
0.009105,0.049922
0.009106,0.051172
0.009107,0.051172
0.009108,0.048672
0.009109,0.048672
0.00911,0.051172
0.009111,0.051172
0.009112,0.053672
0.009113,0.052422
0.009114,0.049922
0.009115,0.051172
0.009116,0.053672
0.009117,0.049922
0.009118,0.048672
0.009119,0.048672
0.00912,0.048672
0.009121,0.051172
0.009122,0.053672
0.009123,0.049922
0.009124,0.051172
0.009125,0.048672
0.009126,0.052422
0.009127,0.051172
0.009128,0.051172
0.009129,0.052422
0.00913,0.047422
0.009131,0.052422
0.009132,0.052422
0.009133,0.051172
0.009134,0.051172
0.009135,0.052422
0.009136,0.049922
0.009137,0.051172
0.009138,0.054922
0.009139,0.048672
0.00914,0.049922
0.009141,0.052422
0.009142,0.049922
0.009143,0.051172
0.009144,0.052422
0.009145,0.049922
0.009146,0.053672
0.009147,0.053672
0.009148,0.053672
0.009149,0.051172
0.00915,0.052422
0.009151,0.052422
0.009152,0.053672
0.009153,0.053672
0.009154,0.049922
0.009155,0.053672
0.009156,0.056172
0.009157,0.053672
0.009158,0.054922
0.009159,0.052422
0.00916,0.051172
0.009161,0.054922
0.009162,0.054922
0.009163,0.053672
0.009164,0.054922
0.009165,0.052422
0.009166,0.054922
0.009167,0.052422
0.009168,0.053672
0.009169,0.056172
0.00917,0.056172
0.009171,0.052422
0.009172,0.054922
0.009173,0.054922
0.009174,0.053672
0.009175,0.054922
0.009176,0.057422
0.009177,0.052422
0.009178,0.054922
0.009179,0.053672
0.00918,0.056172
0.009181,0.054922
0.009182,0.056172
0.009183,0.053672
0.009184,0.057422
0.009185,0.056172
0.009186,0.053672
0.009187,0.054922
0.009188,0.058672
0.009189,0.052422
0.00919,0.056172
0.009191,0.058672
0.009192,0.053672
0.009193,0.053672
0.009194,0.057422
0.009195,0.057422
0.009196,0.052422
0.009197,0.053672
0.009198,0.054922
0.009199,0.054922
0.0092,0.056172
0.009201,0.056172
0.009202,0.054922
0.009203,0.057422
0.009204,0.054922
0.009205,0.054922
0.009206,0.057422
0.009207,0.054922
0.009208,0.057422
0.009209,0.054922
0.00921,0.058672
0.009211,0.056172
0.009212,0.054922
0.009213,0.052422
0.009214,0.058672
0.009215,0.058672
0.009216,0.056172
0.009217,0.054922
0.009218,0.057422
0.009219,0.059922
0.00922,0.057422
0.009221,0.054922
0.009222,0.056172
0.009223,0.053672
0.009224,0.056172
0.009225,0.058672
0.009226,0.054922
0.009227,0.061172
0.009228,0.057422
0.009229,0.059922
0.00923,0.054922
0.009231,0.058672
0.009232,0.057422
0.009233,0.058672
0.009234,0.057422
0.009235,0.053672
0.009236,0.056172
0.009237,0.058672
0.009238,0.057422
0.009239,0.061172
0.00924,0.057422
0.009241,0.058672
0.009242,0.059922
0.009243,0.057422
0.009244,0.058672
0.009245,0.058672
0.009246,0.056172
0.009247,0.059922
0.009248,0.057422
0.009249,0.059922
0.00925,0.059922
0.009251,0.059922
0.009252,0.058672
0.009253,0.058672
0.009254,0.056172
0.009255,0.061172
0.009256,0.057422
0.009257,0.057422
0.009258,0.059922
0.009259,0.059922
0.00926,0.058672
0.009261,0.054922
0.009262,0.057422
0.009263,0.059922
0.009264,0.057422
0.009265,0.057422
0.009266,0.057422
0.009267,0.059922
0.009268,0.062422
0.009269,0.057422
0.00927,0.057422
0.009271,0.059922
0.009272,0.059922
0.009273,0.056172
0.009274,0.059922
0.009275,0.062422
0.009276,0.057422
0.009277,0.056172
0.009278,0.061172
0.009279,0.057422
0.00928,0.058672
0.009281,0.058672
0.009282,0.061172
0.009283,0.059922
0.009284,0.058672
0.009285,0.058672
0.009286,0.059922
0.009287,0.061172
0.009288,0.059922
0.009289,0.057422
0.00929,0.059922
0.009291,0.061172
0.009292,0.059922
0.009293,0.056172
0.009294,0.058672
0.009295,0.059922
0.009296,0.062422
0.009297,0.061172
0.009298,0.059922
0.009299,0.061172
0.0093,0.064922
0.009301,0.062422
0.009302,0.061172
0.009303,0.062422
0.009304,0.063672
0.009305,0.063672
0.009306,0.063672
0.009307,0.064922
0.009308,0.066172
0.009309,0.062422
0.00931,0.062422
0.009311,0.061172
0.009312,0.063672
0.009313,0.064922
0.009314,0.067422
0.009315,0.063672
0.009316,0.066172
0.009317,0.064922
0.009318,0.063672
0.009319,0.067422
0.00932,0.062422
0.009321,0.064922
0.009322,0.063672
0.009323,0.062422
0.009324,0.066172
0.009325,0.063672
0.009326,0.067422
0.009327,0.064922
0.009328,0.066172
0.009329,0.067422
0.00933,0.061172
0.009331,0.066172
0.009332,0.067422
0.009333,0.066172
0.009334,0.064922
0.009335,0.068672
0.009336,0.067422
0.009337,0.064922
0.009338,0.066172
0.009339,0.067422
0.00934,0.068672
0.009341,0.066172
0.009342,0.066172
0.009343,0.068672
0.009344,0.069922
0.009345,0.069922
0.009346,0.069922
0.009347,0.071172
0.009348,0.073672
0.009349,0.068672
0.00935,0.071172
0.009351,0.073672
0.009352,0.068672
0.009353,0.071172
0.009354,0.073672
0.009355,0.073672
0.009356,0.074922
0.009357,0.071172
0.009358,0.074922
0.009359,0.073672
0.00936,0.073672
0.009361,0.074922
0.009362,0.074922
0.009363,0.076172
0.009364,0.074922
0.009365,0.076172
0.009366,0.077422
0.009367,0.079922
0.009368,0.077422
0.009369,0.077422
0.00937,0.081172
0.009371,0.079922
0.009372,0.079922
