Time (s),Voltage (V)
0.005831,0.049922
0.005832,0.048672
0.005833,0.048672
0.005834,0.049922
0.005835,0.052422
0.005836,0.049922
0.005837,0.051172
0.005838,0.052422
0.005839,0.048672
0.00584,0.047422
0.005841,0.048672
0.005842,0.052422
0.005843,0.052422
0.005844,0.047422
0.005845,0.049922
0.005846,0.047422
0.005847,0.051172
0.005848,0.049922
0.005849,0.049922
0.00585,0.051172
0.005851,0.049922
0.005852,0.048672
0.005853,0.053672
0.005854,0.048672
0.005855,0.051172
0.005856,0.049922
0.005857,0.053672
0.005858,0.048672
0.005859,0.052422
0.00586,0.049922
0.005861,0.051172
0.005862,0.052422
0.005863,0.054922
0.005864,0.052422
0.005865,0.053672
0.005866,0.051172
0.005867,0.054922
0.005868,0.048672
0.005869,0.053672
0.00587,0.053672
0.005871,0.056172
0.005872,0.052422
0.005873,0.054922
0.005874,0.056172
0.005875,0.054922
0.005876,0.051172
0.005877,0.053672
0.005878,0.054922
0.005879,0.053672
0.00588,0.053672
0.005881,0.051172
0.005882,0.052422
0.005883,0.053672
0.005884,0.051172
0.005885,0.054922
0.005886,0.053672
0.005887,0.056172
0.005888,0.052422
0.005889,0.051172
0.00589,0.051172
0.005891,0.054922
0.005892,0.054922
0.005893,0.052422
0.005894,0.052422
0.005895,0.052422
0.005896,0.052422
0.005897,0.051172
0.005898,0.048672
0.005899,0.054922
0.0059,0.053672
0.005901,0.054922
0.005902,0.056172
0.005903,0.053672
0.005904,0.053672
0.005905,0.056172
0.005906,0.054922
0.005907,0.053672
0.005908,0.051172
0.005909,0.052422
0.00591,0.053672
0.005911,0.056172
0.005912,0.053672
0.005913,0.054922
0.005914,0.056172
0.005915,0.053672
0.005916,0.054922
0.005917,0.054922
0.005918,0.057422
0.005919,0.052422
0.00592,0.054922
0.005921,0.056172
0.005922,0.056172
0.005923,0.053672
0.005924,0.057422
0.005925,0.057422
0.005926,0.054922
0.005927,0.053672
0.005928,0.057422
0.005929,0.056172
0.00593,0.057422
0.005931,0.053672
0.005932,0.053672
0.005933,0.054922
0.005934,0.054922
0.005935,0.054922
0.005936,0.054922
0.005937,0.056172
0.005938,0.056172
0.005939,0.057422
0.00594,0.053672
0.005941,0.056172
0.005942,0.058672
0.005943,0.057422
0.005944,0.054922
0.005945,0.057422
0.005946,0.058672
0.005947,0.056172
0.005948,0.054922
0.005949,0.057422
0.00595,0.056172
0.005951,0.058672
0.005952,0.054922
0.005953,0.059922
0.005954,0.058672
0.005955,0.058672
0.005956,0.057422
0.005957,0.059922
0.005958,0.058672
0.005959,0.056172
0.00596,0.059922
0.005961,0.057422
0.005962,0.059922
0.005963,0.058672
0.005964,0.057422
0.005965,0.063672
0.005966,0.066172
0.005967,0.062422
0.005968,0.061172
0.005969,0.058672
0.00597,0.063672
0.005971,0.063672
0.005972,0.062422
0.005973,0.062422
0.005974,0.064922
0.005975,0.061172
0.005976,0.064922
0.005977,0.062422
0.005978,0.066172
0.005979,0.064922
0.00598,0.061172
0.005981,0.063672
0.005982,0.066172
0.005983,0.063672
0.005984,0.067422
0.005985,0.064922
0.005986,0.069922
0.005987,0.063672
0.005988,0.063672
0.005989,0.067422
0.00599,0.071172
0.005991,0.063672
0.005992,0.067422
0.005993,0.068672
0.005994,0.067422
0.005995,0.072422
0.005996,0.067422
0.005997,0.071172
0.005998,0.073672
0.005999,0.072422
0.006,0.069922
0.006001,0.068672
0.006002,0.071172
0.006003,0.073672
0.006004,0.071172
0.006005,0.074922
0.006006,0.073672
0.006007,0.071172
0.006008,0.071172
0.006009,0.072422
0.00601,0.077422
0.006011,0.076172
0.006012,0.074922
0.006013,0.076172
0.006014,0.077422
0.006015,0.074922
0.006016,0.078672
0.006017,0.082422
0.006018,0.078672
0.006019,0.079922
0.00602,0.081172
0.006021,0.078672
0.006022,0.079922
0.006023,0.081172
0.006024,0.081172
0.006025,0.084922
0.006026,0.087422
0.006027,0.084922
0.006028,0.087422
0.006029,0.084922
0.00603,0.084922
0.006031,0.084922
0.006032,0.084922
0.006033,0.086172
0.006034,0.086172
0.006035,0.083672
0.006036,0.086172
0.006037,0.088672
0.006038,0.091172
0.006039,0.089922
0.00604,0.087422
0.006041,0.088672
0.006042,0.091172
0.006043,0.092422
0.006044,0.088672
0.006045,0.086172
0.006046,0.092422
0.006047,0.091172
0.006048,0.092422
0.006049,0.092422
0.00605,0.091172
0.006051,0.094922
0.006052,0.089922
0.006053,0.093672
0.006054,0.094922
0.006055,0.092422
0.006056,0.096172
0.006057,0.094922
0.006058,0.097422
0.006059,0.094922
0.00606,0.092422
0.006061,0.101172
0.006062,0.096172
0.006063,0.097422
0.006064,0.099922
0.006065,0.097422
0.006066,0.097422
0.006067,0.096172
0.006068,0.094922
0.006069,0.098672
0.00607,0.097422
0.006071,0.101172
0.006072,0.096172
0.006073,0.101172
0.006074,0.101172
0.006075,0.096172
0.006076,0.098672
0.006077,0.101172
0.006078,0.099922
0.006079,0.102422
0.00608,0.097422
0.006081,0.098672
0.006082,0.103672
0.006083,0.103672
0.006084,0.099922
0.006085,0.101172
0.006086,0.101172
0.006087,0.102422
0.006088,0.102422
0.006089,0.101172
0.00609,0.103672
0.006091,0.099922
0.006092,0.097422
0.006093,0.102422
0.006094,0.101172
0.006095,0.102422
0.006096,0.098672
0.006097,0.102422
0.006098,0.098672
0.006099,0.099922
0.0061,0.096172
0.006101,0.099922
0.006102,0.102422
0.006103,0.098672
0.006104,0.094922
0.006105,0.099922
0.006106,0.101172
0.006107,0.102422
0.006108,0.096172
0.006109,0.099922
0.00611,0.094922
0.006111,0.101172
0.006112,0.096172
0.006113,0.094922
0.006114,0.096172
0.006115,0.098672
0.006116,0.096172
0.006117,0.096172
0.006118,0.097422
0.006119,0.097422
0.00612,0.093672
0.006121,0.097422
0.006122,0.094922
0.006123,0.098672
0.006124,0.094922
0.006125,0.097422
0.006126,0.096172
0.006127,0.091172
0.006128,0.092422
0.006129,0.092422
0.00613,0.096172
0.006131,0.091172
0.006132,0.093672
0.006133,0.093672
0.006134,0.092422
0.006135,0.094922
0.006136,0.093672
0.006137,0.091172
0.006138,0.096172
0.006139,0.091172
0.00614,0.087422
0.006141,0.089922
0.006142,0.088672
0.006143,0.087422
0.006144,0.089922
0.006145,0.088672
0.006146,0.088672
0.006147,0.087422
0.006148,0.088672
0.006149,0.087422
0.00615,0.087422
0.006151,0.086172
0.006152,0.087422
0.006153,0.087422
0.006154,0.086172
0.006155,0.086172
0.006156,0.087422
0.006157,0.087422
0.006158,0.083672
0.006159,0.083672
0.00616,0.081172
0.006161,0.082422
0.006162,0.082422
0.006163,0.081172
0.006164,0.078672
0.006165,0.082422
0.006166,0.079922
0.006167,0.079922
0.006168,0.079922
0.006169,0.081172
0.00617,0.079922
0.006171,0.079922
0.006172,0.081172
0.006173,0.078672
0.006174,0.078672
0.006175,0.076172
0.006176,0.074922
0.006177,0.074922
0.006178,0.082422
0.006179,0.076172
0.00618,0.074922
0.006181,0.076172
0.006182,0.077422
0.006183,0.077422
0.006184,0.076172
0.006185,0.073672
0.006186,0.076172
0.006187,0.073672
0.006188,0.074922
0.006189,0.072422
0.00619,0.072422
0.006191,0.069922
0.006192,0.069922
0.006193,0.073672
0.006194,0.073672
0.006195,0.074922
0.006196,0.069922
0.006197,0.071172
0.006198,0.072422
0.006199,0.069922
0.0062,0.069922
0.006201,0.071172
0.006202,0.069922
0.006203,0.072422
0.006204,0.069922
0.006205,0.071172
0.006206,0.071172
0.006207,0.067422
0.006208,0.067422
0.006209,0.068672
0.00621,0.066172
0.006211,0.066172
0.006212,0.066172
0.006213,0.067422
0.006214,0.066172
0.006215,0.062422
0.006216,0.066172
0.006217,0.064922
0.006218,0.066172
0.006219,0.064922
0.00622,0.066172
0.006221,0.067422
0.006222,0.067422
0.006223,0.063672
0.006224,0.066172
0.006225,0.067422
0.006226,0.062422
0.006227,0.066172
0.006228,0.062422
0.006229,0.063672
0.00623,0.062422
0.006231,0.064922
0.006232,0.061172
0.006233,0.064922
0.006234,0.062422
0.006235,0.061172
0.006236,0.059922
0.006237,0.062422
0.006238,0.061172
0.006239,0.064922
0.00624,0.056172
0.006241,0.059922
0.006242,0.063672
0.006243,0.058672
0.006244,0.062422
0.006245,0.062422
0.006246,0.059922
0.006247,0.061172
0.006248,0.058672
0.006249,0.058672
0.00625,0.059922
0.006251,0.062422
0.006252,0.056172
0.006253,0.061172
0.006254,0.058672
0.006255,0.062422
0.006256,0.058672
0.006257,0.058672
0.006258,0.058672
0.006259,0.061172
0.00626,0.054922
0.006261,0.059922
0.006262,0.058672
0.006263,0.058672
0.006264,0.057422
0.006265,0.054922
0.006266,0.057422
0.006267,0.057422
0.006268,0.053672
0.006269,0.054922
0.00627,0.058672
0.006271,0.057422
0.006272,0.053672
0.006273,0.057422
0.006274,0.059922
0.006275,0.053672
0.006276,0.057422
0.006277,0.056172
0.006278,0.058672
0.006279,0.054922
0.00628,0.057422
0.006281,0.054922
0.006282,0.056172
0.006283,0.056172
0.006284,0.056172
0.006285,0.056172
0.006286,0.054922
0.006287,0.054922
0.006288,0.053672
0.006289,0.056172
0.00629,0.056172
0.006291,0.053672
0.006292,0.052422
0.006293,0.052422
0.006294,0.056172
0.006295,0.053672
0.006296,0.053672
0.006297,0.053672
0.006298,0.053672
0.006299,0.056172
0.0063,0.051172
0.006301,0.052422
0.006302,0.057422
0.006303,0.053672
0.006304,0.051172
0.006305,0.053672
0.006306,0.052422
0.006307,0.051172
0.006308,0.052422
0.006309,0.052422
0.00631,0.051172
0.006311,0.052422
0.006312,0.051172
0.006313,0.057422
0.006314,0.053672
0.006315,0.052422
0.006316,0.048672
0.006317,0.054922
0.006318,0.053672
0.006319,0.053672
0.00632,0.052422
0.006321,0.049922
0.006322,0.051172
0.006323,0.053672
0.006324,0.051172
0.006325,0.053672
0.006326,0.049922
0.006327,0.052422
0.006328,0.049922
0.006329,0.051172
0.00633,0.051172
0.006331,0.052422
0.006332,0.048672
0.006333,0.049922
0.006334,0.051172
0.006335,0.049922
0.006336,0.052422
0.006337,0.052422
0.006338,0.047422
0.006339,0.053672
0.00634,0.051172
0.006341,0.052422
0.006342,0.049922
0.006343,0.049922
0.006344,0.052422
0.006345,0.051172
0.006346,0.051172
0.006347,0.048672
0.006348,0.048672
0.006349,0.053672
0.00635,0.049922
0.006351,0.051172
0.006352,0.046172
0.006353,0.051172
0.006354,0.053672
0.006355,0.049922
0.006356,0.049922
0.006357,0.051172
0.006358,0.048672
0.006359,0.052422
0.00636,0.046172
0.006361,0.049922
0.006362,0.052422
0.006363,0.049922
0.006364,0.048672
0.006365,0.051172
0.006366,0.048672
0.006367,0.051172
0.006368,0.051172
0.006369,0.048672
0.00637,0.051172
0.006371,0.048672
0.006372,0.048672
0.006373,0.047422
0.006374,0.046172
0.006375,0.049922
0.006376,0.046172
0.006377,0.052422
0.006378,0.047422
0.006379,0.051172
0.00638,0.046172
0.006381,0.048672
0.006382,0.051172
0.006383,0.053672
0.006384,0.047422
0.006385,0.051172
0.006386,0.047422
0.006387,0.046172
0.006388,0.047422
0.006389,0.048672
0.00639,0.049922
0.006391,0.049922
0.006392,0.048672
0.006393,0.049922
0.006394,0.047422
0.006395,0.047422
0.006396,0.047422
0.006397,0.048672
0.006398,0.052422
0.006399,0.047422
0.0064,0.048672
0.006401,0.049922
0.006402,0.049922
0.006403,0.049922
0.006404,0.048672
0.006405,0.051172
0.006406,0.047422
0.006407,0.049922
0.006408,0.048672
0.006409,0.049922
0.00641,0.048672
0.006411,0.047422
0.006412,0.047422
0.006413,0.049922
0.006414,0.051172
0.006415,0.047422
0.006416,0.044922
0.006417,0.047422
0.006418,0.049922
0.006419,0.048672
0.00642,0.043672
0.006421,0.047422
0.006422,0.049922
0.006423,0.049922
0.006424,0.048672
0.006425,0.049922
0.006426,0.049922
0.006427,0.047422
0.006428,0.047422
0.006429,0.049922
0.00643,0.047422
0.006431,0.048672
0.006432,0.049922
0.006433,0.051172
0.006434,0.048672
0.006435,0.048672
0.006436,0.049922
0.006437,0.049922
0.006438,0.051172
0.006439,0.049922
0.00644,0.046172
0.006441,0.049922
0.006442,0.048672
0.006443,0.048672
0.006444,0.051172
0.006445,0.049922
0.006446,0.047422
0.006447,0.047422
0.006448,0.049922
0.006449,0.048672
0.00645,0.052422
0.006451,0.049922
0.006452,0.051172
0.006453,0.051172
0.006454,0.051172
0.006455,0.047422
0.006456,0.044922
0.006457,0.047422
0.006458,0.049922
0.006459,0.049922
0.00646,0.047422
0.006461,0.051172
0.006462,0.052422
0.006463,0.047422
0.006464,0.049922
0.006465,0.052422
0.006466,0.044922
0.006467,0.049922
0.006468,0.048672
0.006469,0.048672
0.00647,0.053672
0.006471,0.047422
0.006472,0.047422
0.006473,0.049922
0.006474,0.051172
0.006475,0.046172
0.006476,0.047422
0.006477,0.048672
0.006478,0.051172
0.006479,0.048672
0.00648,0.052422
0.006481,0.048672
0.006482,0.051172
0.006483,0.049922
0.006484,0.049922
0.006485,0.052422
0.006486,0.051172
0.006487,0.049922
0.006488,0.047422
0.006489,0.049922
0.00649,0.048672
0.006491,0.047422
0.006492,0.057422
0.006493,0.052422
0.006494,0.053672
0.006495,0.053672
0.006496,0.048672
0.006497,0.052422
0.006498,0.048672
0.006499,0.052422
0.0065,0.051172
0.006501,0.053672
0.006502,0.052422
0.006503,0.051172
0.006504,0.048672
0.006505,0.052422
0.006506,0.052422
0.006507,0.049922
0.006508,0.051172
0.006509,0.051172
0.00651,0.048672
0.006511,0.053672
0.006512,0.049922
0.006513,0.053672
0.006514,0.051172
0.006515,0.048672
0.006516,0.049922
0.006517,0.052422
0.006518,0.052422
0.006519,0.053672
0.00652,0.048672
0.006521,0.049922
0.006522,0.051172
0.006523,0.052422
0.006524,0.052422
0.006525,0.052422
0.006526,0.052422
0.006527,0.049922
0.006528,0.051172
0.006529,0.048672
0.00653,0.052422
0.006531,0.051172
0.006532,0.049922
0.006533,0.049922
0.006534,0.053672
0.006535,0.048672
0.006536,0.051172
0.006537,0.052422
0.006538,0.053672
0.006539,0.051172
0.00654,0.052422
0.006541,0.053672
0.006542,0.054922
0.006543,0.051172
0.006544,0.051172
0.006545,0.053672
0.006546,0.053672
0.006547,0.054922
0.006548,0.049922
0.006549,0.054922
0.00655,0.054922
0.006551,0.053672
0.006552,0.052422
0.006553,0.054922
0.006554,0.054922
0.006555,0.051172
0.006556,0.049922
0.006557,0.053672
0.006558,0.051172
0.006559,0.054922
0.00656,0.053672
0.006561,0.051172
0.006562,0.052422
0.006563,0.056172
0.006564,0.053672
0.006565,0.052422
0.006566,0.054922
0.006567,0.051172
0.006568,0.053672
0.006569,0.053672
0.00657,0.054922
0.006571,0.053672
0.006572,0.053672
0.006573,0.052422
0.006574,0.057422
0.006575,0.054922
0.006576,0.052422
0.006577,0.052422
0.006578,0.052422
0.006579,0.051172
0.00658,0.054922
0.006581,0.049922
0.006582,0.052422
0.006583,0.052422
0.006584,0.052422
0.006585,0.054922
0.006586,0.051172
0.006587,0.051172
0.006588,0.056172
0.006589,0.052422
0.00659,0.052422
0.006591,0.056172
0.006592,0.054922
0.006593,0.052422
0.006594,0.056172
0.006595,0.051172
0.006596,0.052422
0.006597,0.052422
0.006598,0.052422
0.006599,0.053672
0.0066,0.049922
0.006601,0.053672
0.006602,0.052422
0.006603,0.054922
0.006604,0.052422
0.006605,0.054922
0.006606,0.056172
0.006607,0.053672
0.006608,0.049922
0.006609,0.051172
0.00661,0.056172
0.006611,0.051172
0.006612,0.052422
0.006613,0.051172
0.006614,0.052422
0.006615,0.049922
0.006616,0.049922
0.006617,0.051172
0.006618,0.049922
0.006619,0.049922
0.00662,0.054922
0.006621,0.052422
0.006622,0.051172
0.006623,0.054922
0.006624,0.051172
0.006625,0.054922
0.006626,0.051172
0.006627,0.052422
0.006628,0.053672
0.006629,0.052422
0.00663,0.053672
0.006631,0.052422
0.006632,0.053672
0.006633,0.052422
0.006634,0.053672
0.006635,0.053672
0.006636,0.052422
0.006637,0.057422
0.006638,0.052422
0.006639,0.053672
0.00664,0.052422
0.006641,0.051172
0.006642,0.049922
0.006643,0.052422
0.006644,0.052422
0.006645,0.054922
0.006646,0.052422
0.006647,0.052422
0.006648,0.049922
0.006649,0.049922
0.00665,0.056172
0.006651,0.052422
0.006652,0.049922
0.006653,0.053672
0.006654,0.048672
0.006655,0.053672
0.006656,0.053672
0.006657,0.052422
0.006658,0.052422
0.006659,0.053672
0.00666,0.049922
0.006661,0.049922
0.006662,0.053672
0.006663,0.057422
0.006664,0.049922
0.006665,0.053672
0.006666,0.053672
0.006667,0.053672
0.006668,0.051172
0.006669,0.051172
0.00667,0.054922
0.006671,0.051172
0.006672,0.053672
0.006673,0.052422
0.006674,0.053672
0.006675,0.054922
0.006676,0.051172
0.006677,0.054922
0.006678,0.051172
0.006679,0.052422
0.00668,0.052422
0.006681,0.052422
0.006682,0.051172
0.006683,0.053672
0.006684,0.051172
0.006685,0.054922
0.006686,0.052422
0.006687,0.053672
0.006688,0.051172
0.006689,0.053672
0.00669,0.049922
0.006691,0.053672
0.006692,0.051172
0.006693,0.052422
0.006694,0.053672
0.006695,0.052422
0.006696,0.052422
0.006697,0.051172
0.006698,0.052422
0.006699,0.049922
0.0067,0.051172
0.006701,0.052422
0.006702,0.052422
0.006703,0.051172
0.006704,0.051172
0.006705,0.049922
0.006706,0.053672
0.006707,0.052422
0.006708,0.052422
0.006709,0.049922
0.00671,0.049922
0.006711,0.054922
0.006712,0.048672
0.006713,0.052422
0.006714,0.051172
0.006715,0.053672
0.006716,0.049922
0.006717,0.052422
0.006718,0.051172
0.006719,0.048672
0.00672,0.052422
0.006721,0.049922
0.006722,0.051172
0.006723,0.051172
0.006724,0.052422
0.006725,0.052422
0.006726,0.051172
0.006727,0.051172
0.006728,0.047422
0.006729,0.056172
0.00673,0.051172
0.006731,0.051172
0.006732,0.049922
0.006733,0.051172
0.006734,0.047422
0.006735,0.053672
0.006736,0.048672
0.006737,0.048672
0.006738,0.048672
0.006739,0.051172
0.00674,0.048672
0.006741,0.052422
0.006742,0.048672
0.006743,0.053672
0.006744,0.049922
0.006745,0.048672
0.006746,0.052422
0.006747,0.052422
0.006748,0.047422
0.006749,0.049922
0.00675,0.049922
0.006751,0.051172
0.006752,0.051172
0.006753,0.049922
0.006754,0.048672
0.006755,0.048672
0.006756,0.048672
0.006757,0.049922
0.006758,0.047422
0.006759,0.051172
0.00676,0.046172
0.006761,0.047422
0.006762,0.052422
0.006763,0.051172
0.006764,0.046172
0.006765,0.051172
0.006766,0.049922
0.006767,0.049922
0.006768,0.048672
0.006769,0.052422
0.00677,0.051172
0.006771,0.048672
0.006772,0.049922
0.006773,0.049922
0.006774,0.049922
0.006775,0.051172
0.006776,0.049922
0.006777,0.051172
0.006778,0.051172
0.006779,0.051172
0.00678,0.047422
0.006781,0.049922
0.006782,0.051172
0.006783,0.048672
0.006784,0.049922
0.006785,0.048672
0.006786,0.052422
0.006787,0.048672
0.006788,0.051172
0.006789,0.049922
0.00679,0.048672
0.006791,0.047422
0.006792,0.048672
0.006793,0.051172
0.006794,0.049922
0.006795,0.047422
0.006796,0.049922
0.006797,0.048672
0.006798,0.053672
0.006799,0.047422
0.0068,0.047422
0.006801,0.052422
0.006802,0.049922
0.006803,0.051172
0.006804,0.047422
0.006805,0.048672
0.006806,0.053672
0.006807,0.053672
0.006808,0.046172
0.006809,0.048672
0.00681,0.051172
0.006811,0.051172
0.006812,0.048672
0.006813,0.053672
0.006814,0.052422
0.006815,0.049922
0.006816,0.049922
0.006817,0.052422
0.006818,0.049922
0.006819,0.051172
0.00682,0.052422
0.006821,0.049922
0.006822,0.051172
0.006823,0.049922
0.006824,0.048672
0.006825,0.049922
0.006826,0.051172
0.006827,0.051172
0.006828,0.052422
0.006829,0.052422
0.00683,0.051172
0.006831,0.051172
0.006832,0.049922
0.006833,0.049922
0.006834,0.049922
0.006835,0.049922
0.006836,0.048672
0.006837,0.049922
0.006838,0.051172
0.006839,0.051172
0.00684,0.048672
0.006841,0.052422
0.006842,0.051172
0.006843,0.049922
0.006844,0.049922
0.006845,0.053672
0.006846,0.052422
0.006847,0.054922
0.006848,0.051172
0.006849,0.053672
0.00685,0.053672
0.006851,0.049922
0.006852,0.048672
0.006853,0.052422
0.006854,0.053672
0.006855,0.056172
0.006856,0.051172
0.006857,0.053672
0.006858,0.053672
0.006859,0.051172
0.00686,0.052422
0.006861,0.049922
0.006862,0.056172
0.006863,0.052422
0.006864,0.053672
0.006865,0.051172
0.006866,0.048672
0.006867,0.049922
0.006868,0.051172
0.006869,0.052422
0.00687,0.053672
0.006871,0.051172
0.006872,0.052422
0.006873,0.051172
0.006874,0.054922
0.006875,0.052422
0.006876,0.049922
0.006877,0.053672
0.006878,0.052422
0.006879,0.048672
0.00688,0.051172
0.006881,0.052422
0.006882,0.053672
0.006883,0.051172
0.006884,0.049922
0.006885,0.052422
0.006886,0.053672
0.006887,0.054922
0.006888,0.049922
0.006889,0.052422
0.00689,0.051172
0.006891,0.052422
0.006892,0.052422
0.006893,0.052422
0.006894,0.048672
0.006895,0.052422
0.006896,0.053672
0.006897,0.056172
0.006898,0.053672
0.006899,0.054922
0.0069,0.053672
0.006901,0.053672
0.006902,0.052422
0.006903,0.052422
0.006904,0.051172
0.006905,0.052422
0.006906,0.052422
0.006907,0.053672
0.006908,0.052422
0.006909,0.057422
0.00691,0.054922
0.006911,0.053672
0.006912,0.053672
0.006913,0.056172
0.006914,0.054922
0.006915,0.056172
0.006916,0.049922
0.006917,0.056172
0.006918,0.057422
0.006919,0.052422
0.00692,0.054922
0.006921,0.056172
0.006922,0.054922
0.006923,0.054922
0.006924,0.056172
0.006925,0.054922
0.006926,0.052422
0.006927,0.057422
0.006928,0.053672
0.006929,0.053672
0.00693,0.056172
0.006931,0.053672
0.006932,0.056172
0.006933,0.056172
0.006934,0.059922
0.006935,0.052422
0.006936,0.056172
0.006937,0.058672
0.006938,0.057422
0.006939,0.056172
0.00694,0.056172
0.006941,0.054922
0.006942,0.058672
0.006943,0.054922
0.006944,0.056172
0.006945,0.058672
0.006946,0.059922
0.006947,0.056172
0.006948,0.054922
0.006949,0.059922
0.00695,0.057422
0.006951,0.059922
0.006952,0.054922
0.006953,0.058672
0.006954,0.059922
0.006955,0.061172
0.006956,0.056172
0.006957,0.063672
0.006958,0.057422
0.006959,0.064922
0.00696,0.057422
0.006961,0.057422
0.006962,0.062422
0.006963,0.059922
0.006964,0.058672
0.006965,0.059922
0.006966,0.061172
0.006967,0.061172
0.006968,0.059922
0.006969,0.061172
0.00697,0.063672
0.006971,0.064922
0.006972,0.061172
0.006973,0.062422
0.006974,0.062422
0.006975,0.066172
0.006976,0.064922
0.006977,0.061172
0.006978,0.063672
0.006979,0.062422
0.00698,0.063672
0.006981,0.064922
0.006982,0.064922
0.006983,0.067422
0.006984,0.064922
0.006985,0.064922
0.006986,0.067422
0.006987,0.064922
0.006988,0.066172
0.006989,0.066172
0.00699,0.071172
0.006991,0.067422
0.006992,0.068672
0.006993,0.072422
0.006994,0.068672
0.006995,0.071172
0.006996,0.072422
0.006997,0.069922
0.006998,0.071172
0.006999,0.069922
0.007,0.069922
0.007001,0.071172
0.007002,0.074922
0.007003,0.072422
0.007004,0.073672
0.007005,0.074922
0.007006,0.072422
0.007007,0.073672
0.007008,0.077422
0.007009,0.074922
0.00701,0.077422
0.007011,0.074922
0.007012,0.074922
0.007013,0.074922
0.007014,0.078672
0.007015,0.077422
0.007016,0.079922
0.007017,0.078672
0.007018,0.078672
0.007019,0.078672
0.00702,0.078672
0.007021,0.083672
0.007022,0.078672
0.007023,0.084922
0.007024,0.079922
0.007025,0.084922
0.007026,0.081172
0.007027,0.084922
0.007028,0.082422
0.007029,0.084922
0.00703,0.082422
0.007031,0.084922
0.007032,0.088672
0.007033,0.087422
0.007034,0.088672
0.007035,0.089922
0.007036,0.082422
0.007037,0.086172
0.007038,0.089922
0.007039,0.087422
0.00704,0.089922
0.007041,0.091172
0.007042,0.091172
0.007043,0.091172
0.007044,0.089922
0.007045,0.093672
0.007046,0.089922
0.007047,0.093672
0.007048,0.091172
0.007049,0.092422
0.00705,0.097422
0.007051,0.096172
0.007052,0.089922
0.007053,0.093672
0.007054,0.096172
0.007055,0.091172
0.007056,0.092422
0.007057,0.094922
0.007058,0.096172
0.007059,0.092422
0.00706,0.089922
0.007061,0.099922
0.007062,0.094922
0.007063,0.098672
0.007064,0.097422
0.007065,0.097422
0.007066,0.097422
0.007067,0.101172
0.007068,0.098672
0.007069,0.099922
0.00707,0.097422
0.007071,0.102422
0.007072,0.098672
0.007073,0.098672
0.007074,0.101172
0.007075,0.098672
0.007076,0.099922
0.007077,0.101172
0.007078,0.102422
0.007079,0.099922
0.00708,0.098672
0.007081,0.099922
0.007082,0.101172
0.007083,0.098672
0.007084,0.097422
0.007085,0.101172
0.007086,0.099922
0.007087,0.099922
0.007088,0.103672
0.007089,0.099922
0.00709,0.101172
0.007091,0.104922
0.007092,0.098672
0.007093,0.102422
0.007094,0.103672
0.007095,0.098672
0.007096,0.099922
0.007097,0.103672
0.007098,0.102422
0.007099,0.098672
0.0071,0.098672
0.007101,0.097422
0.007102,0.098672
0.007103,0.098672
0.007104,0.097422
0.007105,0.102422
0.007106,0.101172
0.007107,0.094922
0.007108,0.096172
0.007109,0.099922
0.00711,0.099922
0.007111,0.098672
0.007112,0.096172
0.007113,0.097422
0.007114,0.099922
0.007115,0.096172
0.007116,0.094922
0.007117,0.098672
0.007118,0.097422
0.007119,0.094922
0.00712,0.094922
0.007121,0.097422
0.007122,0.097422
0.007123,0.097422
0.007124,0.091172
0.007125,0.097422
0.007126,0.097422
0.007127,0.094922
0.007128,0.093672
0.007129,0.097422
0.00713,0.096172
0.007131,0.096172
0.007132,0.092422
0.007133,0.094922
0.007134,0.094922
0.007135,0.091172
0.007136,0.089922
0.007137,0.092422
0.007138,0.093672
0.007139,0.088672
0.00714,0.089922
0.007141,0.087422
0.007142,0.092422
0.007143,0.086172
0.007144,0.087422
0.007145,0.087422
0.007146,0.091172
0.007147,0.087422
0.007148,0.086172
0.007149,0.087422
0.00715,0.084922
0.007151,0.089922
0.007152,0.086172
0.007153,0.086172
0.007154,0.084922
0.007155,0.084922
0.007156,0.084922
0.007157,0.087422
0.007158,0.082422
0.007159,0.082422
0.00716,0.083672
0.007161,0.086172
0.007162,0.081172
0.007163,0.082422
0.007164,0.083672
0.007165,0.081172
0.007166,0.079922
0.007167,0.081172
0.007168,0.078672
0.007169,0.082422
0.00717,0.074922
0.007171,0.079922
0.007172,0.074922
0.007173,0.079922
0.007174,0.079922
0.007175,0.078672
0.007176,0.073672
0.007177,0.078672
0.007178,0.078672
0.007179,0.077422
0.00718,0.073672
0.007181,0.072422
0.007182,0.076172
0.007183,0.074922
0.007184,0.074922
0.007185,0.076172
0.007186,0.073672
0.007187,0.073672
0.007188,0.069922
0.007189,0.072422
0.00719,0.072422
0.007191,0.073672
0.007192,0.069922
0.007193,0.071172
0.007194,0.069922
0.007195,0.066172
0.007196,0.068672
0.007197,0.069922
0.007198,0.073672
0.007199,0.072422
0.0072,0.068672
0.007201,0.066172
0.007202,0.067422
0.007203,0.068672
0.007204,0.068672
0.007205,0.071172
0.007206,0.068672
0.007207,0.069922
0.007208,0.067422
0.007209,0.066172
0.00721,0.064922
0.007211,0.064922
0.007212,0.064922
0.007213,0.066172
0.007214,0.064922
0.007215,0.066172
0.007216,0.062422
0.007217,0.066172
0.007218,0.066172
0.007219,0.061172
0.00722,0.064922
0.007221,0.063672
0.007222,0.063672
0.007223,0.064922
0.007224,0.063672
0.007225,0.064922
0.007226,0.061172
0.007227,0.063672
0.007228,0.059922
0.007229,0.062422
0.00723,0.062422
0.007231,0.067422
0.007232,0.062422
0.007233,0.061172
0.007234,0.066172
0.007235,0.063672
0.007236,0.056172
0.007237,0.062422
0.007238,0.063672
0.007239,0.058672
0.00724,0.057422
0.007241,0.061172
0.007242,0.061172
0.007243,0.059922
0.007244,0.063672
0.007245,0.057422
0.007246,0.059922
0.007247,0.059922
0.007248,0.058672
0.007249,0.057422
0.00725,0.062422
0.007251,0.061172
0.007252,0.061172
0.007253,0.056172
0.007254,0.057422
0.007255,0.056172
0.007256,0.058672
0.007257,0.058672
0.007258,0.058672
0.007259,0.057422
0.00726,0.056172
0.007261,0.058672
0.007262,0.056172
0.007263,0.057422
0.007264,0.057422
0.007265,0.054922
0.007266,0.057422
0.007267,0.056172
0.007268,0.053672
0.007269,0.053672
0.00727,0.054922
0.007271,0.052422
0.007272,0.057422
0.007273,0.057422
0.007274,0.053672
0.007275,0.056172
0.007276,0.058672
0.007277,0.057422
0.007278,0.054922
0.007279,0.058672
0.00728,0.053672
0.007281,0.053672
0.007282,0.056172
0.007283,0.053672
0.007284,0.056172
0.007285,0.054922
0.007286,0.052422
0.007287,0.053672
0.007288,0.056172
0.007289,0.053672
0.00729,0.056172
0.007291,0.054922
0.007292,0.056172
0.007293,0.054922
0.007294,0.052422
0.007295,0.053672
0.007296,0.051172
0.007297,0.056172
0.007298,0.056172
0.007299,0.053672
0.0073,0.051172
0.007301,0.054922
0.007302,0.053672
0.007303,0.052422
0.007304,0.049922
0.007305,0.052422
0.007306,0.054922
0.007307,0.051172
0.007308,0.052422
0.007309,0.054922
0.00731,0.051172
0.007311,0.051172
0.007312,0.053672
0.007313,0.052422
0.007314,0.051172
0.007315,0.051172
0.007316,0.052422
0.007317,0.053672
0.007318,0.053672
0.007319,0.052422
0.00732,0.046172
0.007321,0.049922
0.007322,0.051172
0.007323,0.052422
0.007324,0.054922
0.007325,0.051172
0.007326,0.052422
0.007327,0.051172
0.007328,0.053672
0.007329,0.048672
0.00733,0.053672
0.007331,0.051172
0.007332,0.048672
0.007333,0.051172
0.007334,0.053672
0.007335,0.051172
0.007336,0.049922
0.007337,0.052422
0.007338,0.051172
0.007339,0.051172
0.00734,0.049922
0.007341,0.049922
0.007342,0.046172
0.007343,0.054922
0.007344,0.048672
0.007345,0.051172
0.007346,0.052422
0.007347,0.051172
0.007348,0.048672
0.007349,0.051172
0.00735,0.052422
0.007351,0.053672
0.007352,0.047422
0.007353,0.052422
0.007354,0.051172
0.007355,0.048672
0.007356,0.049922
0.007357,0.052422
0.007358,0.051172
0.007359,0.052422
0.00736,0.052422
0.007361,0.049922
0.007362,0.049922
0.007363,0.049922
0.007364,0.052422
0.007365,0.051172
0.007366,0.049922
0.007367,0.048672
0.007368,0.051172
0.007369,0.047422
0.00737,0.051172
0.007371,0.047422
0.007372,0.046172
0.007373,0.052422
0.007374,0.049922
0.007375,0.049922
0.007376,0.048672
0.007377,0.049922
0.007378,0.049922
0.007379,0.047422
0.00738,0.051172
0.007381,0.048672
0.007382,0.049922
0.007383,0.049922
0.007384,0.047422
0.007385,0.049922
0.007386,0.048672
0.007387,0.051172
0.007388,0.047422
0.007389,0.047422
0.00739,0.048672
0.007391,0.048672
0.007392,0.051172
0.007393,0.049922
0.007394,0.047422
0.007395,0.052422
0.007396,0.049922
0.007397,0.051172
0.007398,0.048672
0.007399,0.047422
0.0074,0.046172
0.007401,0.049922
0.007402,0.049922
0.007403,0.044922
0.007404,0.048672
0.007405,0.047422
0.007406,0.049922
0.007407,0.051172
0.007408,0.047422
0.007409,0.047422
0.00741,0.051172
0.007411,0.047422
0.007412,0.046172
0.007413,0.049922
0.007414,0.048672
0.007415,0.049922
0.007416,0.048672
0.007417,0.046172
0.007418,0.047422
0.007419,0.047422
0.00742,0.047422
0.007421,0.048672
0.007422,0.048672
0.007423,0.047422
0.007424,0.046172
0.007425,0.048672
0.007426,0.048672
0.007427,0.047422
0.007428,0.044922
0.007429,0.048672
0.00743,0.048672
0.007431,0.048672
0.007432,0.051172
0.007433,0.048672
0.007434,0.052422
0.007435,0.048672
0.007436,0.047422
0.007437,0.044922
0.007438,0.048672
0.007439,0.047422
0.00744,0.051172
0.007441,0.047422
0.007442,0.049922
0.007443,0.052422
0.007444,0.048672
0.007445,0.049922
0.007446,0.051172
0.007447,0.048672
0.007448,0.049922
0.007449,0.051172
0.00745,0.052422
0.007451,0.048672
0.007452,0.049922
0.007453,0.049922
0.007454,0.052422
0.007455,0.048672
0.007456,0.048672
0.007457,0.051172
0.007458,0.049922
0.007459,0.051172
0.00746,0.046172
0.007461,0.051172
0.007462,0.048672
0.007463,0.048672
0.007464,0.048672
0.007465,0.052422
0.007466,0.051172
0.007467,0.049922
0.007468,0.048672
0.007469,0.048672
0.00747,0.051172
0.007471,0.048672
0.007472,0.048672
0.007473,0.049922
0.007474,0.049922
0.007475,0.048672
0.007476,0.046172
0.007477,0.048672
0.007478,0.049922
0.007479,0.048672
0.00748,0.049922
0.007481,0.052422
0.007482,0.051172
0.007483,0.048672
0.007484,0.047422
0.007485,0.051172
0.007486,0.051172
0.007487,0.048672
0.007488,0.049922
0.007489,0.051172
0.00749,0.049922
0.007491,0.052422
0.007492,0.049922
0.007493,0.051172
0.007494,0.049922
0.007495,0.049922
0.007496,0.052422
0.007497,0.053672
0.007498,0.049922
0.007499,0.048672
0.0075,0.049922
0.007501,0.048672
0.007502,0.053672
0.007503,0.049922
0.007504,0.049922
0.007505,0.051172
0.007506,0.052422
0.007507,0.051172
0.007508,0.047422
0.007509,0.049922
0.00751,0.047422
0.007511,0.048672
0.007512,0.052422
0.007513,0.049922
0.007514,0.054922
0.007515,0.048672
0.007516,0.049922
0.007517,0.051172
0.007518,0.052422
0.007519,0.054922
0.00752,0.049922
0.007521,0.052422
0.007522,0.048672
0.007523,0.049922
0.007524,0.048672
0.007525,0.049922
0.007526,0.051172
0.007527,0.052422
0.007528,0.048672
0.007529,0.052422
0.00753,0.051172
0.007531,0.053672
0.007532,0.051172
0.007533,0.054922
0.007534,0.056172
0.007535,0.052422
0.007536,0.051172
0.007537,0.049922
0.007538,0.051172
0.007539,0.051172
0.00754,0.049922
0.007541,0.051172
0.007542,0.051172
0.007543,0.052422
0.007544,0.049922
0.007545,0.053672
0.007546,0.049922
0.007547,0.052422
0.007548,0.052422
0.007549,0.053672
0.00755,0.053672
0.007551,0.052422
0.007552,0.047422
0.007553,0.051172
0.007554,0.049922
0.007555,0.056172
0.007556,0.047422
0.007557,0.054922
0.007558,0.052422
0.007559,0.049922
0.00756,0.048672
0.007561,0.052422
0.007562,0.053672
0.007563,0.051172
0.007564,0.049922
0.007565,0.052422
0.007566,0.053672
0.007567,0.053672
0.007568,0.053672
0.007569,0.053672
0.00757,0.056172
0.007571,0.052422
0.007572,0.056172
0.007573,0.054922
0.007574,0.053672
0.007575,0.053672
0.007576,0.053672
0.007577,0.049922
0.007578,0.056172
0.007579,0.052422
0.00758,0.053672
0.007581,0.051172
0.007582,0.051172
0.007583,0.051172
0.007584,0.052422
0.007585,0.053672
0.007586,0.049922
0.007587,0.054922
0.007588,0.049922
0.007589,0.053672
0.00759,0.054922
0.007591,0.054922
0.007592,0.047422
0.007593,0.054922
0.007594,0.056172
0.007595,0.051172
0.007596,0.052422
0.007597,0.054922
0.007598,0.052422
0.007599,0.052422
0.0076,0.051172
0.007601,0.052422
0.007602,0.054922
0.007603,0.054922
0.007604,0.052422
0.007605,0.053672
0.007606,0.056172
0.007607,0.053672
0.007608,0.054922
0.007609,0.054922
0.00761,0.053672
0.007611,0.052422
0.007612,0.048672
0.007613,0.056172
0.007614,0.054922
0.007615,0.051172
0.007616,0.051172
0.007617,0.053672
0.007618,0.052422
0.007619,0.054922
0.00762,0.052422
0.007621,0.053672
0.007622,0.052422
0.007623,0.053672
0.007624,0.053672
0.007625,0.054922
0.007626,0.053672
0.007627,0.056172
0.007628,0.051172
0.007629,0.057422
0.00763,0.054922
0.007631,0.053672
0.007632,0.051172
0.007633,0.054922
0.007634,0.056172
0.007635,0.053672
0.007636,0.052422
0.007637,0.053672
0.007638,0.053672
0.007639,0.052422
0.00764,0.048672
0.007641,0.053672
0.007642,0.053672
0.007643,0.052422
0.007644,0.049922
0.007645,0.054922
0.007646,0.051172
0.007647,0.052422
0.007648,0.052422
0.007649,0.051172
0.00765,0.051172
0.007651,0.053672
0.007652,0.053672
0.007653,0.051172
0.007654,0.053672
0.007655,0.053672
0.007656,0.048672
0.007657,0.053672
0.007658,0.051172
0.007659,0.051172
0.00766,0.054922
0.007661,0.049922
0.007662,0.053672
0.007663,0.051172
0.007664,0.049922
0.007665,0.051172
0.007666,0.052422
0.007667,0.051172
0.007668,0.052422
0.007669,0.053672
0.00767,0.047422
0.007671,0.051172
0.007672,0.049922
0.007673,0.052422
0.007674,0.054922
0.007675,0.054922
0.007676,0.048672
0.007677,0.051172
0.007678,0.049922
0.007679,0.052422
0.00768,0.051172
0.007681,0.052422
0.007682,0.051172
0.007683,0.051172
0.007684,0.052422
0.007685,0.052422
0.007686,0.051172
0.007687,0.049922
0.007688,0.051172
0.007689,0.052422
0.00769,0.052422
0.007691,0.052422
0.007692,0.052422
0.007693,0.052422
0.007694,0.052422
0.007695,0.052422
0.007696,0.052422
0.007697,0.051172
0.007698,0.051172
0.007699,0.049922
0.0077,0.044922
0.007701,0.053672
0.007702,0.049922
0.007703,0.049922
0.007704,0.051172
0.007705,0.049922
0.007706,0.053672
0.007707,0.051172
0.007708,0.049922
0.007709,0.052422
0.00771,0.052422
0.007711,0.051172
0.007712,0.047422
0.007713,0.051172
0.007714,0.048672
0.007715,0.049922
0.007716,0.051172
0.007717,0.051172
0.007718,0.052422
0.007719,0.046172
0.00772,0.048672
0.007721,0.049922
0.007722,0.049922
0.007723,0.049922
0.007724,0.046172
0.007725,0.052422
0.007726,0.056172
0.007727,0.051172
0.007728,0.049922
0.007729,0.049922
0.00773,0.047422
0.007731,0.049922
0.007732,0.049922
0.007733,0.048672
0.007734,0.048672
0.007735,0.051172
0.007736,0.049922
0.007737,0.049922
0.007738,0.051172
0.007739,0.049922
0.00774,0.049922
0.007741,0.053672
0.007742,0.051172
0.007743,0.048672
0.007744,0.051172
0.007745,0.048672
0.007746,0.051172
0.007747,0.051172
0.007748,0.044922
0.007749,0.048672
0.00775,0.049922
0.007751,0.051172
0.007752,0.048672
0.007753,0.051172
0.007754,0.051172
0.007755,0.048672
0.007756,0.048672
0.007757,0.051172
0.007758,0.048672
0.007759,0.052422
0.00776,0.052422
0.007761,0.056172
0.007762,0.049922
0.007763,0.049922
0.007764,0.048672
0.007765,0.051172
0.007766,0.048672
0.007767,0.052422
0.007768,0.048672
0.007769,0.051172
0.00777,0.051172
0.007771,0.049922
0.007772,0.048672
0.007773,0.052422
0.007774,0.048672
0.007775,0.049922
0.007776,0.047422
0.007777,0.049922
0.007778,0.051172
0.007779,0.048672
0.00778,0.047422
0.007781,0.049922
0.007782,0.048672
0.007783,0.049922
0.007784,0.049922
0.007785,0.049922
0.007786,0.053672
0.007787,0.048672
0.007788,0.052422
0.007789,0.052422
0.00779,0.049922
0.007791,0.049922
0.007792,0.046172
0.007793,0.048672
0.007794,0.049922
0.007795,0.051172
0.007796,0.049922
0.007797,0.051172
0.007798,0.051172
0.007799,0.049922
0.0078,0.044922
0.007801,0.049922
0.007802,0.051172
0.007803,0.048672
0.007804,0.046172
0.007805,0.052422
0.007806,0.049922
0.007807,0.049922
0.007808,0.049922
0.007809,0.052422
0.00781,0.049922
0.007811,0.051172
0.007812,0.046172
0.007813,0.049922
0.007814,0.051172
0.007815,0.048672
0.007816,0.048672
0.007817,0.048672
0.007818,0.048672
0.007819,0.048672
0.00782,0.047422
0.007821,0.049922
0.007822,0.048672
0.007823,0.052422
0.007824,0.047422
0.007825,0.052422
0.007826,0.051172
0.007827,0.049922
0.007828,0.049922
0.007829,0.051172
0.00783,0.051172
