Time (s),Voltage (V)
0.005258,0.077422
0.005259,0.079922
0.00526,0.073672
0.005261,0.074922
0.005262,0.078672
0.005263,0.078672
0.005264,0.076172
0.005265,0.076172
0.005266,0.077422
0.005267,0.074922
0.005268,0.076172
0.005269,0.072422
0.00527,0.074922
0.005271,0.077422
0.005272,0.076172
0.005273,0.074922
0.005274,0.074922
0.005275,0.073672
0.005276,0.076172
0.005277,0.072422
0.005278,0.078672
0.005279,0.078672
0.00528,0.074922
0.005281,0.078672
0.005282,0.074922
0.005283,0.077422
0.005284,0.077422
0.005285,0.074922
0.005286,0.074922
0.005287,0.078672
0.005288,0.076172
0.005289,0.072422
0.00529,0.076172
0.005291,0.072422
0.005292,0.077422
0.005293,0.073672
0.005294,0.076172
0.005295,0.071172
0.005296,0.076172
0.005297,0.078672
0.005298,0.077422
0.005299,0.073672
0.0053,0.073672
0.005301,0.074922
0.005302,0.072422
0.005303,0.077422
0.005304,0.072422
0.005305,0.076172
0.005306,0.077422
0.005307,0.078672
0.005308,0.073672
0.005309,0.072422
0.00531,0.076172
0.005311,0.074922
0.005312,0.077422
0.005313,0.073672
0.005314,0.076172
0.005315,0.076172
0.005316,0.077422
0.005317,0.076172
0.005318,0.077422
0.005319,0.077422
0.00532,0.073672
0.005321,0.077422
0.005322,0.072422
0.005323,0.076172
0.005324,0.077422
0.005325,0.077422
0.005326,0.073672
0.005327,0.072422
0.005328,0.072422
0.005329,0.077422
0.00533,0.076172
0.005331,0.076172
0.005332,0.078672
0.005333,0.072422
0.005334,0.078672
0.005335,0.076172
0.005336,0.077422
0.005337,0.074922
0.005338,0.073672
0.005339,0.076172
0.00534,0.072422
0.005341,0.074922
0.005342,0.076172
0.005343,0.074922
0.005344,0.076172
0.005345,0.074922
0.005346,0.069922
0.005347,0.076172
0.005348,0.071172
0.005349,0.076172
0.00535,0.073672
0.005351,0.074922
0.005352,0.077422
0.005353,0.078672
0.005354,0.077422
0.005355,0.074922
0.005356,0.074922
0.005357,0.073672
0.005358,0.077422
0.005359,0.076172
0.00536,0.076172
0.005361,0.077422
0.005362,0.074922
0.005363,0.074922
0.005364,0.072422
0.005365,0.074922
0.005366,0.076172
0.005367,0.073672
0.005368,0.076172
0.005369,0.071172
0.00537,0.071172
0.005371,0.073672
0.005372,0.077422
0.005373,0.073672
0.005374,0.074922
0.005375,0.071172
0.005376,0.074922
0.005377,0.077422
0.005378,0.074922
0.005379,0.078672
0.00538,0.078672
0.005381,0.076172
0.005382,0.076172
0.005383,0.074922
0.005384,0.074922
0.005385,0.076172
0.005386,0.074922
0.005387,0.077422
0.005388,0.076172
0.005389,0.076172
0.00539,0.074922
0.005391,0.074922
0.005392,0.077422
0.005393,0.074922
0.005394,0.073672
0.005395,0.074922
0.005396,0.078672
0.005397,0.074922
0.005398,0.072422
0.005399,0.077422
0.0054,0.076172
0.005401,0.077422
0.005402,0.073672
0.005403,0.073672
0.005404,0.076172
0.005405,0.076172
0.005406,0.077422
0.005407,0.074922
0.005408,0.073672
0.005409,0.078672
0.00541,0.073672
0.005411,0.076172
0.005412,0.074922
0.005413,0.074922
0.005414,0.074922
0.005415,0.076172
0.005416,0.074922
0.005417,0.074922
0.005418,0.077422
0.005419,0.073672
0.00542,0.074922
0.005421,0.073672
0.005422,0.073672
0.005423,0.076172
0.005424,0.077422
0.005425,0.073672
0.005426,0.074922
0.005427,0.074922
0.005428,0.076172
0.005429,0.076172
0.00543,0.076172
0.005431,0.078672
0.005432,0.077422
0.005433,0.073672
0.005434,0.072422
0.005435,0.076172
0.005436,0.076172
0.005437,0.072422
0.005438,0.074922
0.005439,0.077422
0.00544,0.077422
0.005441,0.074922
0.005442,0.072422
0.005443,0.076172
0.005444,0.078672
0.005445,0.077422
0.005446,0.076172
0.005447,0.074922
0.005448,0.076172
0.005449,0.073672
0.00545,0.077422
0.005451,0.076172
0.005452,0.077422
0.005453,0.073672
0.005454,0.074922
0.005455,0.076172
0.005456,0.076172
0.005457,0.074922
0.005458,0.074922
0.005459,0.074922
0.00546,0.076172
0.005461,0.076172
0.005462,0.074922
0.005463,0.074922
0.005464,0.074922
0.005465,0.073672
0.005466,0.072422
0.005467,0.074922
0.005468,0.074922
0.005469,0.073672
0.00547,0.073672
0.005471,0.074922
0.005472,0.074922
0.005473,0.074922
0.005474,0.071172
0.005475,0.072422
0.005476,0.074922
0.005477,0.076172
0.005478,0.072422
0.005479,0.073672
0.00548,0.072422
0.005481,0.074922
0.005482,0.072422
0.005483,0.071172
0.005484,0.077422
0.005485,0.072422
0.005486,0.073672
0.005487,0.072422
0.005488,0.077422
0.005489,0.076172
0.00549,0.072422
0.005491,0.074922
0.005492,0.076172
0.005493,0.074922
0.005494,0.073672
0.005495,0.076172
0.005496,0.076172
0.005497,0.074922
0.005498,0.073672
0.005499,0.073672
0.0055,0.076172
0.005501,0.076172
0.005502,0.072422
0.005503,0.077422
0.005504,0.073672
0.005505,0.073672
0.005506,0.071172
0.005507,0.074922
0.005508,0.074922
0.005509,0.073672
0.00551,0.072422
0.005511,0.072422
0.005512,0.071172
0.005513,0.073672
0.005514,0.074922
0.005515,0.072422
0.005516,0.077422
0.005517,0.072422
0.005518,0.073672
0.005519,0.073672
0.00552,0.076172
0.005521,0.073672
0.005522,0.072422
0.005523,0.073672
0.005524,0.072422
0.005525,0.072422
0.005526,0.071172
0.005527,0.074922
0.005528,0.073672
0.005529,0.073672
0.00553,0.073672
0.005531,0.073672
0.005532,0.076172
0.005533,0.076172
0.005534,0.068672
0.005535,0.073672
0.005536,0.076172
0.005537,0.071172
0.005538,0.069922
0.005539,0.073672
0.00554,0.073672
0.005541,0.071172
0.005542,0.072422
0.005543,0.071172
0.005544,0.071172
0.005545,0.072422
0.005546,0.073672
0.005547,0.073672
0.005548,0.073672
0.005549,0.071172
0.00555,0.068672
0.005551,0.074922
0.005552,0.072422
0.005553,0.076172
0.005554,0.072422
0.005555,0.073672
0.005556,0.073672
0.005557,0.072422
0.005558,0.069922
0.005559,0.072422
0.00556,0.074922
0.005561,0.071172
0.005562,0.073672
0.005563,0.073672
0.005564,0.071172
0.005565,0.074922
0.005566,0.068672
0.005567,0.073672
0.005568,0.073672
0.005569,0.073672
0.00557,0.071172
0.005571,0.071172
0.005572,0.072422
0.005573,0.072422
0.005574,0.072422
0.005575,0.073672
0.005576,0.073672
0.005577,0.071172
0.005578,0.074922
0.005579,0.072422
0.00558,0.072422
0.005581,0.072422
0.005582,0.072422
0.005583,0.072422
0.005584,0.071172
0.005585,0.072422
0.005586,0.071172
0.005587,0.072422
0.005588,0.071172
0.005589,0.072422
0.00559,0.072422
0.005591,0.071172
0.005592,0.069922
0.005593,0.071172
0.005594,0.068672
0.005595,0.071172
0.005596,0.069922
0.005597,0.071172
0.005598,0.067422
0.005599,0.072422
0.0056,0.072422
0.005601,0.073672
0.005602,0.068672
0.005603,0.073672
0.005604,0.071172
0.005605,0.068672
0.005606,0.071172
0.005607,0.073672
0.005608,0.071172
0.005609,0.071172
0.00561,0.068672
0.005611,0.072422
0.005612,0.073672
0.005613,0.069922
0.005614,0.071172
0.005615,0.073672
0.005616,0.073672
0.005617,0.069922
0.005618,0.067422
0.005619,0.069922
0.00562,0.072422
0.005621,0.067422
0.005622,0.071172
0.005623,0.072422
0.005624,0.074922
0.005625,0.071172
0.005626,0.072422
0.005627,0.072422
0.005628,0.071172
0.005629,0.071172
0.00563,0.071172
0.005631,0.069922
0.005632,0.068672
0.005633,0.069922
0.005634,0.067422
0.005635,0.069922
0.005636,0.067422
0.005637,0.071172
0.005638,0.068672
0.005639,0.068672
0.00564,0.071172
0.005641,0.072422
0.005642,0.069922
0.005643,0.072422
0.005644,0.072422
0.005645,0.071172
0.005646,0.069922
0.005647,0.068672
0.005648,0.069922
0.005649,0.071172
0.00565,0.071172
0.005651,0.071172
0.005652,0.072422
0.005653,0.071172
0.005654,0.067422
0.005655,0.069922
0.005656,0.069922
0.005657,0.073672
0.005658,0.072422
0.005659,0.068672
0.00566,0.073672
0.005661,0.068672
0.005662,0.071172
0.005663,0.074922
0.005664,0.072422
0.005665,0.072422
0.005666,0.067422
0.005667,0.069922
0.005668,0.068672
0.005669,0.069922
0.00567,0.068672
0.005671,0.071172
0.005672,0.066172
0.005673,0.071172
0.005674,0.068672
0.005675,0.072422
0.005676,0.068672
0.005677,0.068672
0.005678,0.069922
0.005679,0.071172
0.00568,0.071172
0.005681,0.071172
0.005682,0.067422
0.005683,0.069922
0.005684,0.072422
0.005685,0.067422
0.005686,0.071172
0.005687,0.068672
0.005688,0.072422
0.005689,0.072422
0.00569,0.071172
0.005691,0.069922
0.005692,0.071172
0.005693,0.071172
0.005694,0.071172
0.005695,0.067422
0.005696,0.071172
0.005697,0.069922
0.005698,0.068672
0.005699,0.073672
0.0057,0.069922
0.005701,0.071172
0.005702,0.066172
0.005703,0.071172
0.005704,0.071172
0.005705,0.069922
0.005706,0.069922
0.005707,0.069922
0.005708,0.073672
0.005709,0.068672
0.00571,0.069922
0.005711,0.069922
0.005712,0.069922
0.005713,0.067422
0.005714,0.066172
0.005715,0.071172
0.005716,0.069922
0.005717,0.069922
0.005718,0.069922
0.005719,0.073672
0.00572,0.069922
0.005721,0.068672
0.005722,0.067422
0.005723,0.072422
0.005724,0.069922
0.005725,0.067422
0.005726,0.071172
0.005727,0.071172
0.005728,0.072422
0.005729,0.069922
0.00573,0.069922
0.005731,0.068672
0.005732,0.068672
0.005733,0.066172
0.005734,0.071172
0.005735,0.071172
0.005736,0.068672
0.005737,0.066172
0.005738,0.068672
0.005739,0.069922
0.00574,0.071172
0.005741,0.067422
0.005742,0.069922
0.005743,0.071172
0.005744,0.069922
0.005745,0.069922
0.005746,0.066172
0.005747,0.071172
0.005748,0.069922
0.005749,0.067422
0.00575,0.068672
0.005751,0.067422
0.005752,0.069922
0.005753,0.067422
0.005754,0.063672
0.005755,0.064922
0.005756,0.068672
0.005757,0.067422
0.005758,0.066172
0.005759,0.071172
0.00576,0.068672
0.005761,0.069922
0.005762,0.067422
0.005763,0.069922
0.005764,0.068672
0.005765,0.069922
0.005766,0.068672
0.005767,0.068672
0.005768,0.072422
0.005769,0.067422
0.00577,0.067422
0.005771,0.068672
0.005772,0.068672
0.005773,0.068672
0.005774,0.072422
0.005775,0.066172
0.005776,0.071172
0.005777,0.069922
0.005778,0.067422
0.005779,0.068672
0.00578,0.071172
0.005781,0.068672
0.005782,0.067422
0.005783,0.067422
0.005784,0.068672
0.005785,0.069922
0.005786,0.066172
0.005787,0.071172
0.005788,0.067422
0.005789,0.064922
0.00579,0.069922
0.005791,0.069922
0.005792,0.071172
0.005793,0.068672
0.005794,0.064922
0.005795,0.067422
0.005796,0.069922
0.005797,0.068672
0.005798,0.067422
0.005799,0.066172
0.0058,0.068672
0.005801,0.067422
0.005802,0.067422
0.005803,0.069922
0.005804,0.069922
0.005805,0.066172
0.005806,0.067422
0.005807,0.069922
0.005808,0.074922
0.005809,0.068672
0.00581,0.069922
0.005811,0.067422
0.005812,0.071172
0.005813,0.072422
0.005814,0.068672
0.005815,0.071172
0.005816,0.071172
0.005817,0.071172
0.005818,0.069922
0.005819,0.069922
0.00582,0.071172
0.005821,0.074922
0.005822,0.069922
0.005823,0.069922
0.005824,0.073672
0.005825,0.072422
0.005826,0.068672
0.005827,0.071172
0.005828,0.073672
0.005829,0.073672
0.00583,0.072422
0.005831,0.073672
0.005832,0.077422
0.005833,0.073672
0.005834,0.072422
0.005835,0.076172
0.005836,0.076172
0.005837,0.076172
0.005838,0.074922
0.005839,0.077422
0.00584,0.077422
0.005841,0.073672
0.005842,0.078672
0.005843,0.076172
0.005844,0.078672
0.005845,0.079922
0.005846,0.079922
0.005847,0.083672
0.005848,0.081172
0.005849,0.083672
0.00585,0.083672
0.005851,0.081172
0.005852,0.083672
0.005853,0.084922
0.005854,0.084922
0.005855,0.087422
0.005856,0.086172
0.005857,0.083672
0.005858,0.089922
0.005859,0.086172
0.00586,0.091172
0.005861,0.089922
0.005862,0.091172
0.005863,0.092422
0.005864,0.089922
0.005865,0.091172
0.005866,0.092422
0.005867,0.094922
0.005868,0.096172
0.005869,0.096172
0.00587,0.097422
0.005871,0.098672
0.005872,0.099922
0.005873,0.098672
0.005874,0.094922
0.005875,0.099922
0.005876,0.101172
0.005877,0.102422
0.005878,0.099922
0.005879,0.103672
0.00588,0.104922
0.005881,0.106172
0.005882,0.108672
0.005883,0.107422
0.005884,0.109922
0.005885,0.108672
0.005886,0.109922
0.005887,0.112422
0.005888,0.113672
0.005889,0.114922
0.00589,0.116172
0.005891,0.116172
0.005892,0.114922
0.005893,0.118672
0.005894,0.118672
0.005895,0.118672
0.005896,0.119922
0.005897,0.118672
0.005898,0.122422
0.005899,0.123672
0.0059,0.122422
0.005901,0.127422
0.005902,0.122422
0.005903,0.127422
0.005904,0.129922
0.005905,0.131172
0.005906,0.127422
0.005907,0.131172
0.005908,0.132422
0.005909,0.134922
0.00591,0.132422
0.005911,0.134922
0.005912,0.138672
0.005913,0.137422
0.005914,0.139922
0.005915,0.142422
0.005916,0.139922
0.005917,0.143672
0.005918,0.137422
0.005919,0.143672
0.00592,0.144922
0.005921,0.147422
0.005922,0.144922
0.005923,0.146172
0.005924,0.151172
0.005925,0.148672
0.005926,0.149922
0.005927,0.152422
0.005928,0.151172
0.005929,0.153672
0.00593,0.152422
0.005931,0.156172
0.005932,0.153672
0.005933,0.154922
0.005934,0.153672
0.005935,0.157422
0.005936,0.158672
0.005937,0.159922
0.005938,0.161172
0.005939,0.161172
0.00594,0.162422
0.005941,0.163672
0.005942,0.161172
0.005943,0.164922
0.005944,0.162422
0.005945,0.163672
0.005946,0.161172
0.005947,0.159922
0.005948,0.167422
0.005949,0.164922
0.00595,0.166172
0.005951,0.167422
0.005952,0.166172
0.005953,0.168672
0.005954,0.167422
0.005955,0.169922
0.005956,0.167422
0.005957,0.168672
0.005958,0.169922
0.005959,0.167422
0.00596,0.168672
0.005961,0.171172
0.005962,0.166172
0.005963,0.173672
0.005964,0.168672
0.005965,0.171172
0.005966,0.168672
0.005967,0.172422
0.005968,0.171172
0.005969,0.171172
0.00597,0.167422
0.005971,0.171172
0.005972,0.174922
0.005973,0.168672
0.005974,0.169922
0.005975,0.168672
0.005976,0.174922
0.005977,0.171172
0.005978,0.169922
0.005979,0.171172
0.00598,0.168672
0.005981,0.171172
0.005982,0.169922
0.005983,0.169922
0.005984,0.171172
0.005985,0.169922
0.005986,0.168672
0.005987,0.168672
0.005988,0.168672
0.005989,0.168672
0.00599,0.168672
0.005991,0.169922
0.005992,0.166172
0.005993,0.168672
0.005994,0.167422
0.005995,0.167422
0.005996,0.168672
0.005997,0.167422
0.005998,0.164922
0.005999,0.164922
0.006,0.162422
0.006001,0.164922
0.006002,0.161172
0.006003,0.166172
0.006004,0.163672
0.006005,0.162422
0.006006,0.163672
0.006007,0.157422
0.006008,0.159922
0.006009,0.162422
0.00601,0.159922
0.006011,0.159922
0.006012,0.161172
0.006013,0.157422
0.006014,0.151172
0.006015,0.157422
0.006016,0.154922
0.006017,0.153672
0.006018,0.157422
0.006019,0.154922
0.00602,0.149922
0.006021,0.151172
0.006022,0.151172
0.006023,0.149922
0.006024,0.152422
0.006025,0.151172
0.006026,0.148672
0.006027,0.148672
0.006028,0.149922
0.006029,0.149922
0.00603,0.148672
0.006031,0.143672
0.006032,0.148672
0.006033,0.143672
0.006034,0.146172
0.006035,0.147422
0.006036,0.144922
0.006037,0.144922
0.006038,0.141172
0.006039,0.142422
0.00604,0.139922
0.006041,0.139922
0.006042,0.138672
0.006043,0.138672
0.006044,0.141172
0.006045,0.137422
0.006046,0.134922
0.006047,0.138672
0.006048,0.137422
0.006049,0.137422
0.00605,0.133672
0.006051,0.136172
0.006052,0.136172
0.006053,0.131172
0.006054,0.129922
0.006055,0.129922
0.006056,0.132422
0.006057,0.128672
0.006058,0.128672
0.006059,0.129922
0.00606,0.131172
0.006061,0.127422
0.006062,0.129922
0.006063,0.124922
0.006064,0.128672
0.006065,0.124922
0.006066,0.124922
0.006067,0.124922
0.006068,0.124922
0.006069,0.121172
0.00607,0.121172
0.006071,0.123672
0.006072,0.121172
0.006073,0.121172
0.006074,0.123672
0.006075,0.122422
0.006076,0.118672
0.006077,0.116172
0.006078,0.118672
0.006079,0.121172
0.00608,0.119922
0.006081,0.116172
0.006082,0.117422
0.006083,0.113672
0.006084,0.117422
0.006085,0.112422
0.006086,0.116172
0.006087,0.114922
0.006088,0.112422
0.006089,0.113672
0.00609,0.112422
0.006091,0.112422
0.006092,0.112422
0.006093,0.111172
0.006094,0.113672
0.006095,0.111172
0.006096,0.112422
0.006097,0.113672
0.006098,0.109922
0.006099,0.111172
0.0061,0.108672
0.006101,0.107422
0.006102,0.106172
0.006103,0.108672
0.006104,0.107422
0.006105,0.113672
0.006106,0.106172
0.006107,0.107422
0.006108,0.106172
0.006109,0.104922
0.00611,0.103672
0.006111,0.106172
0.006112,0.106172
0.006113,0.104922
0.006114,0.103672
0.006115,0.106172
0.006116,0.102422
0.006117,0.103672
0.006118,0.102422
0.006119,0.102422
0.00612,0.103672
0.006121,0.103672
0.006122,0.098672
0.006123,0.101172
0.006124,0.101172
0.006125,0.102422
0.006126,0.099922
0.006127,0.101172
0.006128,0.101172
0.006129,0.101172
0.00613,0.097422
0.006131,0.097422
0.006132,0.097422
0.006133,0.096172
0.006134,0.094922
0.006135,0.098672
0.006136,0.096172
0.006137,0.094922
0.006138,0.096172
0.006139,0.096172
0.00614,0.098672
0.006141,0.096172
0.006142,0.093672
0.006143,0.094922
0.006144,0.096172
0.006145,0.096172
0.006146,0.094922
0.006147,0.093672
0.006148,0.096172
0.006149,0.093672
0.00615,0.093672
0.006151,0.096172
0.006152,0.099922
0.006153,0.092422
0.006154,0.093672
0.006155,0.091172
0.006156,0.096172
0.006157,0.097422
0.006158,0.091172
0.006159,0.092422
0.00616,0.093672
0.006161,0.091172
0.006162,0.089922
0.006163,0.092422
0.006164,0.092422
0.006165,0.089922
0.006166,0.088672
0.006167,0.091172
0.006168,0.087422
0.006169,0.091172
0.00617,0.088672
0.006171,0.088672
0.006172,0.089922
0.006173,0.088672
0.006174,0.084922
0.006175,0.088672
0.006176,0.088672
0.006177,0.087422
0.006178,0.084922
0.006179,0.088672
0.00618,0.088672
0.006181,0.091172
0.006182,0.086172
0.006183,0.087422
0.006184,0.086172
0.006185,0.088672
0.006186,0.088672
0.006187,0.086172
0.006188,0.084922
0.006189,0.084922
0.00619,0.083672
0.006191,0.086172
0.006192,0.086172
0.006193,0.086172
0.006194,0.082422
0.006195,0.086172
0.006196,0.086172
0.006197,0.084922
0.006198,0.084922
0.006199,0.084922
0.0062,0.083672
0.006201,0.082422
0.006202,0.082422
0.006203,0.082422
0.006204,0.078672
0.006205,0.081172
0.006206,0.081172
0.006207,0.082422
0.006208,0.083672
0.006209,0.084922
0.00621,0.083672
0.006211,0.082422
0.006212,0.078672
0.006213,0.081172
0.006214,0.079922
0.006215,0.081172
0.006216,0.083672
0.006217,0.082422
0.006218,0.081172
0.006219,0.079922
0.00622,0.078672
0.006221,0.081172
0.006222,0.077422
0.006223,0.079922
0.006224,0.079922
0.006225,0.078672
0.006226,0.077422
0.006227,0.082422
0.006228,0.077422
0.006229,0.079922
0.00623,0.079922
0.006231,0.077422
0.006232,0.078672
0.006233,0.078672
0.006234,0.078672
0.006235,0.076172
0.006236,0.078672
0.006237,0.079922
0.006238,0.077422
0.006239,0.078672
0.00624,0.079922
0.006241,0.076172
0.006242,0.076172
0.006243,0.078672
0.006244,0.076172
0.006245,0.078672
0.006246,0.078672
0.006247,0.077422
0.006248,0.077422
0.006249,0.077422
0.00625,0.076172
0.006251,0.074922
0.006252,0.074922
0.006253,0.077422
0.006254,0.078672
0.006255,0.077422
0.006256,0.076172
0.006257,0.076172
0.006258,0.077422
0.006259,0.077422
0.00626,0.074922
0.006261,0.077422
0.006262,0.074922
0.006263,0.078672
0.006264,0.078672
0.006265,0.077422
0.006266,0.076172
0.006267,0.077422
0.006268,0.078672
0.006269,0.076172
0.00627,0.073672
0.006271,0.073672
0.006272,0.077422
0.006273,0.078672
0.006274,0.077422
0.006275,0.074922
0.006276,0.076172
0.006277,0.074922
0.006278,0.073672
0.006279,0.077422
0.00628,0.078672
0.006281,0.073672
0.006282,0.073672
0.006283,0.074922
0.006284,0.073672
0.006285,0.078672
0.006286,0.074922
0.006287,0.076172
0.006288,0.076172
0.006289,0.074922
0.00629,0.074922
0.006291,0.078672
0.006292,0.076172
0.006293,0.077422
0.006294,0.072422
0.006295,0.077422
0.006296,0.076172
0.006297,0.073672
0.006298,0.074922
0.006299,0.076172
0.0063,0.076172
0.006301,0.076172
0.006302,0.073672
0.006303,0.076172
0.006304,0.073672
0.006305,0.079922
0.006306,0.076172
0.006307,0.077422
0.006308,0.078672
0.006309,0.074922
0.00631,0.073672
0.006311,0.077422
0.006312,0.072422
0.006313,0.071172
0.006314,0.074922
0.006315,0.079922
0.006316,0.077422
0.006317,0.076172
0.006318,0.069922
0.006319,0.078672
0.00632,0.076172
0.006321,0.076172
0.006322,0.074922
0.006323,0.074922
0.006324,0.073672
0.006325,0.074922
0.006326,0.073672
0.006327,0.073672
0.006328,0.073672
0.006329,0.073672
0.00633,0.074922
0.006331,0.074922
0.006332,0.077422
0.006333,0.077422
0.006334,0.072422
0.006335,0.072422
0.006336,0.079922
0.006337,0.077422
0.006338,0.074922
0.006339,0.077422
0.00634,0.073672
0.006341,0.076172
0.006342,0.076172
0.006343,0.077422
0.006344,0.077422
0.006345,0.073672
0.006346,0.076172
0.006347,0.073672
0.006348,0.072422
0.006349,0.074922
0.00635,0.074922
0.006351,0.078672
0.006352,0.077422
0.006353,0.074922
0.006354,0.074922
0.006355,0.074922
0.006356,0.073672
0.006357,0.076172
0.006358,0.073672
0.006359,0.073672
0.00636,0.073672
0.006361,0.076172
0.006362,0.072422
0.006363,0.072422
0.006364,0.072422
0.006365,0.074922
0.006366,0.072422
0.006367,0.073672
0.006368,0.073672
0.006369,0.074922
0.00637,0.072422
0.006371,0.074922
0.006372,0.074922
0.006373,0.072422
0.006374,0.073672
0.006375,0.079922
0.006376,0.073672
0.006377,0.074922
0.006378,0.076172
0.006379,0.074922
0.00638,0.073672
0.006381,0.074922
0.006382,0.069922
0.006383,0.072422
0.006384,0.076172
0.006385,0.073672
0.006386,0.072422
0.006387,0.074922
0.006388,0.074922
0.006389,0.072422
0.00639,0.073672
0.006391,0.074922
0.006392,0.074922
0.006393,0.073672
0.006394,0.074922
0.006395,0.078672
0.006396,0.076172
0.006397,0.074922
0.006398,0.073672
0.006399,0.077422
0.0064,0.071172
0.006401,0.077422
0.006402,0.074922
0.006403,0.076172
0.006404,0.076172
0.006405,0.071172
0.006406,0.071172
0.006407,0.073672
0.006408,0.073672
0.006409,0.076172
0.00641,0.072422
0.006411,0.077422
0.006412,0.077422
0.006413,0.076172
0.006414,0.074922
0.006415,0.073672
0.006416,0.074922
0.006417,0.077422
0.006418,0.072422
0.006419,0.076172
0.00642,0.069922
0.006421,0.077422
0.006422,0.073672
0.006423,0.076172
0.006424,0.074922
0.006425,0.074922
0.006426,0.074922
0.006427,0.076172
0.006428,0.074922
0.006429,0.072422
0.00643,0.072422
0.006431,0.077422
0.006432,0.076172
0.006433,0.073672
0.006434,0.074922
0.006435,0.076172
0.006436,0.073672
0.006437,0.074922
0.006438,0.071172
0.006439,0.074922
0.00644,0.074922
0.006441,0.076172
0.006442,0.078672
0.006443,0.072422
0.006444,0.077422
0.006445,0.074922
0.006446,0.071172
0.006447,0.072422
0.006448,0.078672
0.006449,0.074922
0.00645,0.074922
0.006451,0.073672
0.006452,0.074922
0.006453,0.073672
0.006454,0.074922
0.006455,0.077422
0.006456,0.074922
0.006457,0.073672
0.006458,0.076172
0.006459,0.074922
0.00646,0.078672
0.006461,0.073672
0.006462,0.072422
0.006463,0.076172
0.006464,0.078672
0.006465,0.076172
0.006466,0.073672
0.006467,0.074922
0.006468,0.078672
0.006469,0.072422
0.00647,0.071172
0.006471,0.074922
0.006472,0.074922
0.006473,0.078672
0.006474,0.074922
0.006475,0.074922
0.006476,0.076172
0.006477,0.074922
0.006478,0.073672
0.006479,0.074922
0.00648,0.072422
0.006481,0.074922
0.006482,0.072422
0.006483,0.073672
0.006484,0.074922
0.006485,0.073672
0.006486,0.072422
0.006487,0.074922
0.006488,0.074922
0.006489,0.073672
0.00649,0.073672
0.006491,0.076172
0.006492,0.077422
0.006493,0.076172
0.006494,0.069922
0.006495,0.076172
0.006496,0.077422
0.006497,0.074922
0.006498,0.072422
0.006499,0.073672
0.0065,0.076172
0.006501,0.076172
0.006502,0.074922
0.006503,0.077422
0.006504,0.074922
0.006505,0.076172
0.006506,0.074922
0.006507,0.074922
0.006508,0.074922
0.006509,0.073672
0.00651,0.069922
0.006511,0.071172
0.006512,0.071172
0.006513,0.072422
0.006514,0.071172
0.006515,0.072422
0.006516,0.073672
0.006517,0.072422
0.006518,0.069922
0.006519,0.072422
0.00652,0.072422
0.006521,0.074922
0.006522,0.071172
0.006523,0.073672
0.006524,0.069922
0.006525,0.073672
0.006526,0.072422
0.006527,0.074922
0.006528,0.074922
0.006529,0.073672
0.00653,0.067422
0.006531,0.076172
0.006532,0.073672
0.006533,0.074922
0.006534,0.073672
0.006535,0.074922
0.006536,0.069922
0.006537,0.074922
0.006538,0.069922
0.006539,0.078672
0.00654,0.072422
0.006541,0.068672
0.006542,0.069922
0.006543,0.072422
0.006544,0.076172
0.006545,0.072422
0.006546,0.069922
0.006547,0.071172
0.006548,0.071172
0.006549,0.071172
0.00655,0.071172
0.006551,0.074922
0.006552,0.072422
0.006553,0.074922
0.006554,0.074922
0.006555,0.073672
0.006556,0.072422
0.006557,0.071172
0.006558,0.071172
0.006559,0.072422
0.00656,0.069922
0.006561,0.073672
0.006562,0.071172
0.006563,0.073672
0.006564,0.074922
0.006565,0.072422
0.006566,0.071172
0.006567,0.073672
0.006568,0.073672
0.006569,0.073672
0.00657,0.071172
0.006571,0.073672
0.006572,0.072422
0.006573,0.072422
0.006574,0.072422
0.006575,0.071172
0.006576,0.072422
0.006577,0.069922
0.006578,0.068672
0.006579,0.073672
0.00658,0.069922
0.006581,0.071172
0.006582,0.067422
0.006583,0.073672
0.006584,0.069922
0.006585,0.072422
0.006586,0.069922
0.006587,0.069922
0.006588,0.072422
0.006589,0.071172
0.00659,0.069922
0.006591,0.072422
0.006592,0.069922
0.006593,0.071172
0.006594,0.072422
0.006595,0.073672
0.006596,0.072422
0.006597,0.071172
0.006598,0.068672
0.006599,0.069922
0.0066,0.071172
0.006601,0.069922
0.006602,0.071172
0.006603,0.071172
0.006604,0.071172
0.006605,0.071172
0.006606,0.071172
0.006607,0.069922
0.006608,0.072422
0.006609,0.073672
0.00661,0.072422
0.006611,0.072422
0.006612,0.072422
0.006613,0.069922
0.006614,0.071172
0.006615,0.071172
0.006616,0.071172
0.006617,0.069922
0.006618,0.067422
0.006619,0.072422
0.00662,0.071172
0.006621,0.071172
0.006622,0.073672
0.006623,0.069922
0.006624,0.068672
0.006625,0.073672
0.006626,0.066172
0.006627,0.072422
0.006628,0.071172
0.006629,0.071172
0.00663,0.068672
0.006631,0.069922
0.006632,0.072422
0.006633,0.069922
0.006634,0.069922
0.006635,0.072422
0.006636,0.072422
0.006637,0.072422
0.006638,0.069922
0.006639,0.069922
0.00664,0.069922
0.006641,0.073672
0.006642,0.068672
0.006643,0.071172
0.006644,0.069922
0.006645,0.071172
0.006646,0.068672
0.006647,0.072422
0.006648,0.072422
0.006649,0.072422
0.00665,0.072422
0.006651,0.072422
0.006652,0.071172
0.006653,0.069922
0.006654,0.069922
0.006655,0.073672
0.006656,0.071172
0.006657,0.071172
0.006658,0.069922
0.006659,0.068672
0.00666,0.072422
0.006661,0.071172
0.006662,0.068672
0.006663,0.071172
0.006664,0.071172
0.006665,0.068672
0.006666,0.069922
0.006667,0.073672
0.006668,0.071172
0.006669,0.073672
0.00667,0.066172
0.006671,0.072422
0.006672,0.069922
0.006673,0.069922
0.006674,0.071172
0.006675,0.067422
0.006676,0.071172
0.006677,0.069922
0.006678,0.068672
0.006679,0.071172
0.00668,0.072422
0.006681,0.067422
0.006682,0.069922
0.006683,0.069922
0.006684,0.072422
0.006685,0.071172
0.006686,0.069922
0.006687,0.071172
0.006688,0.073672
0.006689,0.069922
0.00669,0.072422
0.006691,0.067422
0.006692,0.067422
0.006693,0.072422
0.006694,0.067422
0.006695,0.069922
0.006696,0.069922
0.006697,0.068672
0.006698,0.068672
0.006699,0.069922
0.0067,0.069922
0.006701,0.069922
0.006702,0.068672
0.006703,0.069922
0.006704,0.068672
0.006705,0.071172
0.006706,0.067422
0.006707,0.068672
0.006708,0.069922
0.006709,0.066172
0.00671,0.068672
0.006711,0.069922
0.006712,0.068672
0.006713,0.071172
0.006714,0.068672
0.006715,0.067422
0.006716,0.071172
0.006717,0.069922
0.006718,0.067422
0.006719,0.067422
0.00672,0.068672
0.006721,0.068672
0.006722,0.068672
0.006723,0.068672
0.006724,0.071172
0.006725,0.069922
0.006726,0.067422
0.006727,0.068672
0.006728,0.072422
0.006729,0.067422
0.00673,0.066172
0.006731,0.068672
0.006732,0.069922
0.006733,0.073672
0.006734,0.068672
0.006735,0.068672
0.006736,0.071172
0.006737,0.071172
0.006738,0.067422
0.006739,0.068672
0.00674,0.067422
0.006741,0.071172
0.006742,0.071172
0.006743,0.068672
0.006744,0.068672
0.006745,0.067422
0.006746,0.069922
0.006747,0.068672
0.006748,0.068672
0.006749,0.067422
0.00675,0.067422
0.006751,0.067422
0.006752,0.066172
0.006753,0.067422
0.006754,0.072422
0.006755,0.069922
0.006756,0.071172
0.006757,0.069922
0.006758,0.067422
0.006759,0.067422
0.00676,0.068672
0.006761,0.069922
0.006762,0.069922
0.006763,0.067422
0.006764,0.068672
0.006765,0.066172
0.006766,0.068672
0.006767,0.064922
0.006768,0.071172
0.006769,0.066172
0.00677,0.066172
0.006771,0.067422
0.006772,0.069922
0.006773,0.068672
0.006774,0.066172
0.006775,0.066172
0.006776,0.068672
0.006777,0.067422
0.006778,0.067422
0.006779,0.066172
0.00678,0.067422
0.006781,0.066172
0.006782,0.064922
0.006783,0.069922
0.006784,0.067422
0.006785,0.068672
0.006786,0.066172
0.006787,0.064922
0.006788,0.066172
0.006789,0.068672
0.00679,0.068672
0.006791,0.071172
0.006792,0.071172
0.006793,0.067422
0.006794,0.068672
0.006795,0.068672
0.006796,0.069922
0.006797,0.069922
0.006798,0.066172
0.006799,0.067422
0.0068,0.071172
0.006801,0.066172
0.006802,0.068672
0.006803,0.067422
0.006804,0.067422
0.006805,0.067422
0.006806,0.066172
0.006807,0.071172
0.006808,0.071172
0.006809,0.068672
0.00681,0.067422
0.006811,0.069922
0.006812,0.071172
0.006813,0.067422
0.006814,0.068672
0.006815,0.071172
0.006816,0.071172
0.006817,0.074922
0.006818,0.068672
0.006819,0.069922
0.00682,0.072422
0.006821,0.071172
0.006822,0.071172
0.006823,0.072422
0.006824,0.069922
0.006825,0.071172
0.006826,0.071172
0.006827,0.073672
0.006828,0.073672
0.006829,0.069922
0.00683,0.069922
0.006831,0.072422
0.006832,0.073672
0.006833,0.072422
0.006834,0.071172
0.006835,0.076172
0.006836,0.073672
0.006837,0.076172
0.006838,0.076172
0.006839,0.079922
0.00684,0.076172
0.006841,0.077422
0.006842,0.074922
0.006843,0.078672
0.006844,0.079922
0.006845,0.079922
0.006846,0.078672
0.006847,0.079922
0.006848,0.079922
0.006849,0.082422
0.00685,0.082422
0.006851,0.087422
0.006852,0.084922
0.006853,0.082422
0.006854,0.082422
0.006855,0.084922
0.006856,0.086172
0.006857,0.086172
0.006858,0.084922
0.006859,0.087422
0.00686,0.091172
0.006861,0.088672
0.006862,0.089922
0.006863,0.093672
0.006864,0.093672
0.006865,0.092422
0.006866,0.088672
0.006867,0.093672
0.006868,0.092422
0.006869,0.093672
0.00687,0.094922
0.006871,0.096172
0.006872,0.094922
0.006873,0.096172
0.006874,0.094922
0.006875,0.102422
0.006876,0.097422
0.006877,0.098672
0.006878,0.101172
0.006879,0.103672
0.00688,0.104922
0.006881,0.106172
0.006882,0.108672
0.006883,0.107422
0.006884,0.107422
0.006885,0.107422
0.006886,0.108672
0.006887,0.111172
0.006888,0.109922
0.006889,0.111172
0.00689,0.113672
0.006891,0.114922
0.006892,0.116172
0.006893,0.117422
0.006894,0.114922
0.006895,0.119922
0.006896,0.121172
0.006897,0.121172
0.006898,0.121172
0.006899,0.127422
0.0069,0.124922
0.006901,0.124922
0.006902,0.128672
0.006903,0.129922
0.006904,0.129922
0.006905,0.129922
0.006906,0.128672
0.006907,0.132422
0.006908,0.131172
0.006909,0.133672
0.00691,0.134922
0.006911,0.137422
0.006912,0.138672
0.006913,0.137422
0.006914,0.137422
0.006915,0.141172
0.006916,0.138672
0.006917,0.143672
0.006918,0.142422
0.006919,0.146172
0.00692,0.143672
0.006921,0.148672
0.006922,0.146172
0.006923,0.147422
0.006924,0.149922
0.006925,0.147422
0.006926,0.147422
0.006927,0.153672
0.006928,0.152422
0.006929,0.153672
0.00693,0.152422
0.006931,0.153672
0.006932,0.157422
0.006933,0.154922
0.006934,0.153672
0.006935,0.157422
0.006936,0.161172
0.006937,0.156172
0.006938,0.153672
0.006939,0.158672
0.00694,0.162422
0.006941,0.161172
0.006942,0.163672
0.006943,0.162422
0.006944,0.163672
0.006945,0.163672
0.006946,0.161172
0.006947,0.163672
0.006948,0.167422
0.006949,0.163672
0.00695,0.162422
0.006951,0.164922
0.006952,0.167422
0.006953,0.164922
0.006954,0.166172
0.006955,0.169922
0.006956,0.169922
0.006957,0.168672
0.006958,0.168672
0.006959,0.167422
0.00696,0.168672
0.006961,0.169922
0.006962,0.167422
0.006963,0.169922
0.006964,0.172422
0.006965,0.169922
0.006966,0.171172
0.006967,0.172422
0.006968,0.171172
0.006969,0.174922
0.00697,0.172422
0.006971,0.173672
0.006972,0.172422
0.006973,0.169922
0.006974,0.166172
0.006975,0.172422
0.006976,0.172422
0.006977,0.171172
0.006978,0.169922
0.006979,0.173672
0.00698,0.171172
0.006981,0.171172
0.006982,0.168672
0.006983,0.171172
0.006984,0.171172
0.006985,0.167422
0.006986,0.167422
0.006987,0.169922
0.006988,0.169922
0.006989,0.169922
0.00699,0.167422
0.006991,0.172422
0.006992,0.168672
0.006993,0.166172
0.006994,0.163672
0.006995,0.167422
0.006996,0.166172
0.006997,0.164922
0.006998,0.166172
0.006999,0.166172
0.007,0.164922
0.007001,0.163672
0.007002,0.161172
0.007003,0.163672
0.007004,0.163672
0.007005,0.163672
0.007006,0.161172
0.007007,0.162422
0.007008,0.159922
0.007009,0.161172
0.00701,0.159922
0.007011,0.157422
0.007012,0.154922
0.007013,0.159922
0.007014,0.156172
0.007015,0.161172
0.007016,0.157422
0.007017,0.156172
0.007018,0.154922
0.007019,0.156172
0.00702,0.154922
0.007021,0.153672
0.007022,0.154922
0.007023,0.154922
0.007024,0.151172
0.007025,0.148672
0.007026,0.151172
0.007027,0.152422
0.007028,0.149922
0.007029,0.147422
0.00703,0.147422
0.007031,0.148672
0.007032,0.146172
0.007033,0.143672
0.007034,0.144922
0.007035,0.146172
0.007036,0.146172
0.007037,0.139922
0.007038,0.147422
0.007039,0.142422
0.00704,0.138672
0.007041,0.138672
0.007042,0.141172
0.007043,0.137422
0.007044,0.141172
0.007045,0.136172
0.007046,0.137422
0.007047,0.137422
0.007048,0.137422
0.007049,0.136172
0.00705,0.132422
0.007051,0.131172
0.007052,0.134922
0.007053,0.132422
0.007054,0.132422
0.007055,0.131172
0.007056,0.133672
0.007057,0.127422
0.007058,0.128672
0.007059,0.129922
0.00706,0.128672
0.007061,0.126172
0.007062,0.126172
0.007063,0.127422
0.007064,0.129922
0.007065,0.126172
0.007066,0.124922
0.007067,0.124922
0.007068,0.121172
0.007069,0.124922
0.00707,0.122422
0.007071,0.122422
0.007072,0.119922
0.007073,0.122422
0.007074,0.118672
0.007075,0.121172
0.007076,0.118672
0.007077,0.119922
0.007078,0.118672
0.007079,0.116172
0.00708,0.118672
0.007081,0.116172
0.007082,0.119922
0.007083,0.116172
0.007084,0.116172
0.007085,0.113672
0.007086,0.111172
0.007087,0.111172
0.007088,0.113672
0.007089,0.112422
0.00709,0.109922
0.007091,0.113672
0.007092,0.112422
0.007093,0.109922
0.007094,0.109922
0.007095,0.112422
0.007096,0.111172
0.007097,0.111172
0.007098,0.109922
0.007099,0.109922
0.0071,0.111172
0.007101,0.106172
0.007102,0.104922
0.007103,0.107422
0.007104,0.108672
0.007105,0.108672
0.007106,0.108672
0.007107,0.107422
0.007108,0.103672
0.007109,0.106172
0.00711,0.103672
0.007111,0.103672
0.007112,0.106172
0.007113,0.107422
0.007114,0.104922
0.007115,0.104922
0.007116,0.106172
0.007117,0.103672
0.007118,0.103672
0.007119,0.104922
0.00712,0.101172
0.007121,0.101172
0.007122,0.099922
0.007123,0.098672
0.007124,0.102422
0.007125,0.098672
0.007126,0.098672
0.007127,0.102422
0.007128,0.098672
0.007129,0.099922
0.00713,0.101172
0.007131,0.099922
0.007132,0.098672
0.007133,0.099922
0.007134,0.096172
0.007135,0.099922
0.007136,0.094922
0.007137,0.099922
0.007138,0.093672
0.007139,0.096172
0.00714,0.097422
0.007141,0.097422
0.007142,0.096172
0.007143,0.096172
0.007144,0.094922
0.007145,0.096172
0.007146,0.094922
0.007147,0.094922
0.007148,0.094922
0.007149,0.096172
0.00715,0.092422
0.007151,0.093672
0.007152,0.093672
0.007153,0.093672
0.007154,0.091172
0.007155,0.092422
0.007156,0.092422
0.007157,0.093672
0.007158,0.092422
0.007159,0.092422
0.00716,0.093672
0.007161,0.091172
0.007162,0.092422
0.007163,0.088672
0.007164,0.092422
0.007165,0.092422
0.007166,0.086172
0.007167,0.092422
0.007168,0.091172
0.007169,0.089922
0.00717,0.088672
0.007171,0.087422
0.007172,0.084922
0.007173,0.088672
0.007174,0.086172
0.007175,0.089922
0.007176,0.091172
0.007177,0.088672
0.007178,0.088672
0.007179,0.089922
0.00718,0.087422
0.007181,0.087422
0.007182,0.084922
0.007183,0.086172
0.007184,0.087422
0.007185,0.086172
0.007186,0.086172
0.007187,0.087422
0.007188,0.082422
0.007189,0.084922
0.00719,0.084922
0.007191,0.086172
0.007192,0.081172
0.007193,0.083672
0.007194,0.084922
0.007195,0.082422
0.007196,0.084922
0.007197,0.083672
0.007198,0.086172
0.007199,0.081172
0.0072,0.086172
0.007201,0.087422
0.007202,0.083672
0.007203,0.079922
0.007204,0.082422
0.007205,0.083672
0.007206,0.082422
0.007207,0.083672
0.007208,0.082422
0.007209,0.081172
0.00721,0.079922
0.007211,0.082422
0.007212,0.081172
0.007213,0.083672
0.007214,0.078672
0.007215,0.082422
0.007216,0.078672
0.007217,0.077422
0.007218,0.081172
0.007219,0.083672
0.00722,0.081172
0.007221,0.082422
0.007222,0.082422
0.007223,0.082422
0.007224,0.081172
0.007225,0.081172
0.007226,0.077422
0.007227,0.077422
0.007228,0.079922
0.007229,0.078672
0.00723,0.079922
0.007231,0.079922
0.007232,0.077422
0.007233,0.081172
0.007234,0.078672
0.007235,0.076172
0.007236,0.081172
0.007237,0.078672
0.007238,0.077422
0.007239,0.077422
0.00724,0.081172
0.007241,0.079922
0.007242,0.077422
0.007243,0.079922
0.007244,0.074922
0.007245,0.081172
0.007246,0.078672
0.007247,0.079922
0.007248,0.077422
0.007249,0.077422
0.00725,0.074922
0.007251,0.078672
0.007252,0.077422
0.007253,0.078672
0.007254,0.072422
0.007255,0.081172
0.007256,0.077422
0.007257,0.081172
