Time (s),Voltage (V)
0.00698,0.049922
0.006981,0.056172
0.006982,0.056172
0.006983,0.052422
0.006984,0.053672
0.006985,0.056172
0.006986,0.052422
0.006987,0.054922
0.006988,0.053672
0.006989,0.056172
0.00699,0.054922
0.006991,0.056172
0.006992,0.054922
0.006993,0.056172
0.006994,0.056172
0.006995,0.056172
0.006996,0.051172
0.006997,0.059922
0.006998,0.057422
0.006999,0.056172
0.007,0.057422
0.007001,0.061172
0.007002,0.056172
0.007003,0.054922
0.007004,0.054922
0.007005,0.056172
0.007006,0.059922
0.007007,0.057422
0.007008,0.056172
0.007009,0.059922
0.00701,0.058672
0.007011,0.058672
0.007012,0.058672
0.007013,0.061172
0.007014,0.058672
0.007015,0.059922
0.007016,0.057422
0.007017,0.058672
0.007018,0.058672
0.007019,0.057422
0.00702,0.062422
0.007021,0.061172
0.007022,0.062422
0.007023,0.059922
0.007024,0.061172
0.007025,0.061172
0.007026,0.062422
0.007027,0.059922
0.007028,0.061172
0.007029,0.064922
0.00703,0.064922
0.007031,0.059922
0.007032,0.063672
0.007033,0.067422
0.007034,0.063672
0.007035,0.064922
0.007036,0.063672
0.007037,0.063672
0.007038,0.064922
0.007039,0.066172
0.00704,0.063672
0.007041,0.068672
0.007042,0.064922
0.007043,0.068672
0.007044,0.066172
0.007045,0.069922
0.007046,0.069922
0.007047,0.068672
0.007048,0.068672
0.007049,0.071172
0.00705,0.071172
0.007051,0.071172
0.007052,0.069922
0.007053,0.072422
0.007054,0.068672
0.007055,0.071172
0.007056,0.076172
0.007057,0.073672
0.007058,0.076172
0.007059,0.071172
0.00706,0.074922
0.007061,0.076172
0.007062,0.074922
0.007063,0.074922
0.007064,0.073672
0.007065,0.076172
0.007066,0.076172
0.007067,0.079922
0.007068,0.074922
0.007069,0.077422
0.00707,0.078672
0.007071,0.078672
0.007072,0.077422
0.007073,0.081172
0.007074,0.082422
0.007075,0.078672
0.007076,0.079922
0.007077,0.082422
0.007078,0.078672
0.007079,0.083672
0.00708,0.081172
0.007081,0.084922
0.007082,0.082422
0.007083,0.086172
0.007084,0.084922
0.007085,0.087422
0.007086,0.083672
0.007087,0.086172
0.007088,0.086172
0.007089,0.087422
0.00709,0.084922
0.007091,0.086172
0.007092,0.086172
0.007093,0.087422
0.007094,0.089922
0.007095,0.092422
0.007096,0.088672
0.007097,0.092422
0.007098,0.088672
0.007099,0.091172
0.0071,0.089922
0.007101,0.091172
0.007102,0.092422
0.007103,0.091172
0.007104,0.091172
0.007105,0.093672
0.007106,0.094922
0.007107,0.094922
0.007108,0.093672
0.007109,0.093672
0.00711,0.091172
0.007111,0.096172
0.007112,0.096172
0.007113,0.093672
0.007114,0.096172
0.007115,0.098672
0.007116,0.096172
0.007117,0.097422
0.007118,0.096172
0.007119,0.096172
0.00712,0.091172
0.007121,0.097422
0.007122,0.097422
0.007123,0.099922
0.007124,0.098672
0.007125,0.098672
0.007126,0.096172
0.007127,0.098672
0.007128,0.097422
0.007129,0.101172
0.00713,0.099922
0.007131,0.098672
0.007132,0.096172
0.007133,0.102422
0.007134,0.101172
0.007135,0.102422
0.007136,0.099922
0.007137,0.099922
0.007138,0.101172
0.007139,0.098672
0.00714,0.101172
0.007141,0.098672
0.007142,0.102422
0.007143,0.104922
0.007144,0.098672
0.007145,0.106172
0.007146,0.102422
0.007147,0.103672
0.007148,0.098672
0.007149,0.101172
0.00715,0.102422
0.007151,0.101172
0.007152,0.101172
0.007153,0.102422
0.007154,0.103672
0.007155,0.102422
0.007156,0.103672
0.007157,0.106172
0.007158,0.103672
0.007159,0.103672
0.00716,0.104922
0.007161,0.102422
0.007162,0.099922
0.007163,0.101172
0.007164,0.101172
0.007165,0.102422
0.007166,0.101172
0.007167,0.102422
0.007168,0.101172
0.007169,0.101172
0.00717,0.098672
0.007171,0.099922
0.007172,0.103672
0.007173,0.106172
0.007174,0.103672
0.007175,0.099922
0.007176,0.098672
0.007177,0.098672
0.007178,0.099922
0.007179,0.101172
0.00718,0.099922
0.007181,0.097422
0.007182,0.099922
0.007183,0.097422
0.007184,0.097422
0.007185,0.096172
0.007186,0.099922
0.007187,0.101172
0.007188,0.096172
0.007189,0.098672
0.00719,0.097422
0.007191,0.097422
0.007192,0.096172
0.007193,0.099922
0.007194,0.096172
0.007195,0.094922
0.007196,0.094922
0.007197,0.097422
0.007198,0.093672
0.007199,0.094922
0.0072,0.091172
0.007201,0.096172
0.007202,0.092422
0.007203,0.094922
0.007204,0.096172
0.007205,0.093672
0.007206,0.092422
0.007207,0.091172
0.007208,0.091172
0.007209,0.096172
0.00721,0.093672
0.007211,0.092422
0.007212,0.091172
0.007213,0.093672
0.007214,0.093672
0.007215,0.092422
0.007216,0.086172
0.007217,0.087422
0.007218,0.089922
0.007219,0.087422
0.00722,0.084922
0.007221,0.087422
0.007222,0.091172
0.007223,0.087422
0.007224,0.083672
0.007225,0.087422
0.007226,0.083672
0.007227,0.086172
0.007228,0.084922
0.007229,0.086172
0.00723,0.079922
0.007231,0.081172
0.007232,0.083672
0.007233,0.084922
0.007234,0.084922
0.007235,0.083672
0.007236,0.084922
0.007237,0.083672
0.007238,0.081172
0.007239,0.082422
0.00724,0.082422
0.007241,0.083672
0.007242,0.078672
0.007243,0.079922
0.007244,0.079922
0.007245,0.079922
0.007246,0.079922
0.007247,0.079922
0.007248,0.079922
0.007249,0.081172
0.00725,0.077422
0.007251,0.079922
0.007252,0.077422
0.007253,0.077422
0.007254,0.079922
0.007255,0.077422
0.007256,0.078672
0.007257,0.079922
0.007258,0.077422
0.007259,0.076172
0.00726,0.072422
0.007261,0.077422
0.007262,0.073672
0.007263,0.074922
0.007264,0.076172
0.007265,0.076172
0.007266,0.074922
0.007267,0.069922
0.007268,0.069922
0.007269,0.069922
0.00727,0.071172
0.007271,0.072422
0.007272,0.068672
0.007273,0.072422
0.007274,0.072422
0.007275,0.069922
0.007276,0.067422
0.007277,0.071172
0.007278,0.068672
0.007279,0.068672
0.00728,0.071172
0.007281,0.071172
0.007282,0.066172
0.007283,0.069922
0.007284,0.069922
0.007285,0.067422
0.007286,0.068672
0.007287,0.066172
0.007288,0.066172
0.007289,0.069922
0.00729,0.067422
0.007291,0.064922
0.007292,0.066172
0.007293,0.067422
0.007294,0.067422
0.007295,0.068672
0.007296,0.064922
0.007297,0.063672
0.007298,0.064922
0.007299,0.063672
0.0073,0.061172
0.007301,0.063672
0.007302,0.062422
0.007303,0.064922
0.007304,0.059922
0.007305,0.068672
0.007306,0.062422
0.007307,0.061172
0.007308,0.063672
0.007309,0.066172
0.00731,0.064922
0.007311,0.062422
0.007312,0.062422
0.007313,0.061172
0.007314,0.059922
0.007315,0.057422
0.007316,0.061172
0.007317,0.058672
0.007318,0.063672
0.007319,0.058672
0.00732,0.059922
0.007321,0.059922
0.007322,0.058672
0.007323,0.059922
0.007324,0.058672
0.007325,0.058672
0.007326,0.057422
0.007327,0.059922
0.007328,0.057422
0.007329,0.061172
0.00733,0.056172
0.007331,0.056172
0.007332,0.054922
0.007333,0.057422
0.007334,0.052422
0.007335,0.054922
0.007336,0.054922
0.007337,0.058672
0.007338,0.057422
0.007339,0.057422
0.00734,0.054922
0.007341,0.056172
0.007342,0.059922
0.007343,0.054922
0.007344,0.056172
0.007345,0.057422
0.007346,0.053672
0.007347,0.056172
0.007348,0.053672
0.007349,0.053672
0.00735,0.054922
0.007351,0.053672
0.007352,0.054922
0.007353,0.049922
0.007354,0.052422
0.007355,0.054922
0.007356,0.054922
0.007357,0.057422
0.007358,0.053672
0.007359,0.053672
0.00736,0.052422
0.007361,0.054922
0.007362,0.054922
0.007363,0.052422
0.007364,0.054922
0.007365,0.052422
0.007366,0.052422
0.007367,0.049922
0.007368,0.049922
0.007369,0.052422
0.00737,0.051172
0.007371,0.053672
0.007372,0.048672
0.007373,0.052422
0.007374,0.053672
0.007375,0.053672
0.007376,0.051172
0.007377,0.054922
0.007378,0.051172
0.007379,0.051172
0.00738,0.049922
0.007381,0.051172
0.007382,0.048672
0.007383,0.049922
0.007384,0.049922
0.007385,0.051172
0.007386,0.056172
0.007387,0.052422
0.007388,0.048672
0.007389,0.052422
0.00739,0.049922
0.007391,0.053672
0.007392,0.047422
0.007393,0.051172
0.007394,0.048672
0.007395,0.049922
0.007396,0.048672
0.007397,0.047422
0.007398,0.051172
0.007399,0.051172
0.0074,0.048672
0.007401,0.049922
0.007402,0.051172
0.007403,0.046172
0.007404,0.047422
0.007405,0.047422
0.007406,0.048672
0.007407,0.043672
0.007408,0.047422
0.007409,0.047422
0.00741,0.046172
0.007411,0.044922
0.007412,0.047422
0.007413,0.048672
0.007414,0.044922
0.007415,0.046172
0.007416,0.044922
0.007417,0.044922
0.007418,0.051172
0.007419,0.044922
0.00742,0.048672
0.007421,0.048672
0.007422,0.048672
0.007423,0.046172
0.007424,0.046172
0.007425,0.044922
0.007426,0.047422
0.007427,0.046172
0.007428,0.048672
0.007429,0.046172
0.00743,0.046172
0.007431,0.046172
0.007432,0.047422
0.007433,0.046172
0.007434,0.046172
0.007435,0.047422
0.007436,0.048672
0.007437,0.044922
0.007438,0.046172
0.007439,0.044922
0.00744,0.043672
0.007441,0.044922
0.007442,0.046172
0.007443,0.047422
0.007444,0.044922
0.007445,0.046172
0.007446,0.049922
0.007447,0.046172
0.007448,0.044922
0.007449,0.046172
0.00745,0.048672
0.007451,0.047422
0.007452,0.043672
0.007453,0.044922
0.007454,0.047422
0.007455,0.043672
0.007456,0.046172
0.007457,0.044922
0.007458,0.042422
0.007459,0.044922
0.00746,0.044922
0.007461,0.047422
0.007462,0.042422
0.007463,0.049922
0.007464,0.041172
0.007465,0.043672
0.007466,0.043672
0.007467,0.043672
0.007468,0.044922
0.007469,0.048672
0.00747,0.046172
0.007471,0.044922
0.007472,0.044922
0.007473,0.046172
0.007474,0.046172
0.007475,0.043672
0.007476,0.041172
0.007477,0.044922
0.007478,0.047422
0.007479,0.043672
0.00748,0.042422
0.007481,0.047422
0.007482,0.042422
0.007483,0.047422
0.007484,0.042422
0.007485,0.047422
0.007486,0.046172
0.007487,0.043672
0.007488,0.046172
0.007489,0.044922
0.00749,0.043672
0.007491,0.043672
0.007492,0.044922
0.007493,0.043672
0.007494,0.039922
0.007495,0.048672
0.007496,0.041172
0.007497,0.044922
0.007498,0.046172
0.007499,0.044922
0.0075,0.041172
0.007501,0.048672
0.007502,0.043672
0.007503,0.042422
0.007504,0.041172
0.007505,0.043672
0.007506,0.047422
0.007507,0.039922
0.007508,0.044922
0.007509,0.043672
0.00751,0.043672
0.007511,0.042422
0.007512,0.039922
0.007513,0.044922
0.007514,0.043672
0.007515,0.043672
0.007516,0.044922
0.007517,0.047422
0.007518,0.046172
0.007519,0.042422
0.00752,0.038672
0.007521,0.044922
0.007522,0.043672
0.007523,0.041172
0.007524,0.039922
0.007525,0.044922
0.007526,0.046172
0.007527,0.042422
0.007528,0.038672
0.007529,0.044922
0.00753,0.044922
0.007531,0.043672
0.007532,0.044922
0.007533,0.044922
0.007534,0.043672
0.007535,0.043672
0.007536,0.043672
0.007537,0.047422
0.007538,0.043672
0.007539,0.041172
0.00754,0.042422
0.007541,0.044922
0.007542,0.044922
0.007543,0.042422
0.007544,0.041172
0.007545,0.046172
0.007546,0.046172
0.007547,0.046172
0.007548,0.046172
0.007549,0.041172
0.00755,0.042422
0.007551,0.043672
0.007552,0.044922
0.007553,0.042422
0.007554,0.046172
0.007555,0.043672
0.007556,0.041172
0.007557,0.043672
0.007558,0.043672
0.007559,0.043672
0.00756,0.043672
0.007561,0.046172
0.007562,0.046172
0.007563,0.043672
0.007564,0.043672
0.007565,0.041172
0.007566,0.044922
0.007567,0.039922
0.007568,0.042422
0.007569,0.043672
0.00757,0.041172
0.007571,0.044922
0.007572,0.044922
0.007573,0.044922
0.007574,0.044922
0.007575,0.044922
0.007576,0.041172
0.007577,0.043672
0.007578,0.042422
0.007579,0.044922
0.00758,0.042422
0.007581,0.043672
0.007582,0.046172
0.007583,0.044922
0.007584,0.043672
0.007585,0.044922
0.007586,0.041172
0.007587,0.044922
0.007588,0.044922
0.007589,0.046172
0.00759,0.043672
0.007591,0.043672
0.007592,0.038672
0.007593,0.044922
0.007594,0.043672
0.007595,0.043672
0.007596,0.042422
0.007597,0.044922
0.007598,0.043672
0.007599,0.043672
0.0076,0.042422
0.007601,0.043672
0.007602,0.042422
0.007603,0.046172
0.007604,0.042422
0.007605,0.042422
0.007606,0.044922
0.007607,0.043672
0.007608,0.044922
0.007609,0.042422
0.00761,0.044922
0.007611,0.042422
0.007612,0.043672
0.007613,0.046172
0.007614,0.046172
0.007615,0.043672
0.007616,0.042422
0.007617,0.046172
0.007618,0.046172
0.007619,0.044922
0.00762,0.043672
0.007621,0.042422
0.007622,0.046172
0.007623,0.044922
0.007624,0.046172
0.007625,0.044922
0.007626,0.042422
0.007627,0.044922
0.007628,0.043672
0.007629,0.047422
0.00763,0.044922
0.007631,0.043672
0.007632,0.043672
0.007633,0.046172
0.007634,0.044922
0.007635,0.044922
0.007636,0.042422
0.007637,0.043672
0.007638,0.044922
0.007639,0.043672
0.00764,0.043672
0.007641,0.047422
0.007642,0.044922
0.007643,0.044922
0.007644,0.043672
0.007645,0.044922
0.007646,0.043672
0.007647,0.044922
0.007648,0.046172
0.007649,0.044922
0.00765,0.044922
0.007651,0.043672
0.007652,0.044922
0.007653,0.048672
0.007654,0.043672
0.007655,0.048672
0.007656,0.047422
0.007657,0.042422
0.007658,0.046172
0.007659,0.048672
0.00766,0.047422
0.007661,0.047422
0.007662,0.047422
0.007663,0.049922
0.007664,0.043672
0.007665,0.047422
0.007666,0.048672
0.007667,0.046172
0.007668,0.044922
0.007669,0.048672
0.00767,0.051172
0.007671,0.047422
0.007672,0.047422
0.007673,0.047422
0.007674,0.047422
0.007675,0.043672
0.007676,0.046172
0.007677,0.046172
0.007678,0.047422
0.007679,0.044922
0.00768,0.047422
0.007681,0.047422
0.007682,0.048672
0.007683,0.051172
0.007684,0.047422
0.007685,0.047422
0.007686,0.047422
0.007687,0.048672
0.007688,0.048672
0.007689,0.049922
0.00769,0.051172
0.007691,0.047422
0.007692,0.046172
0.007693,0.048672
0.007694,0.049922
0.007695,0.048672
0.007696,0.046172
0.007697,0.048672
0.007698,0.052422
0.007699,0.046172
0.0077,0.044922
0.007701,0.048672
0.007702,0.049922
0.007703,0.049922
0.007704,0.049922
0.007705,0.048672
0.007706,0.052422
0.007707,0.048672
0.007708,0.048672
0.007709,0.051172
0.00771,0.049922
0.007711,0.047422
0.007712,0.047422
0.007713,0.048672
0.007714,0.049922
0.007715,0.049922
0.007716,0.049922
0.007717,0.047422
0.007718,0.052422
0.007719,0.049922
0.00772,0.047422
0.007721,0.051172
0.007722,0.049922
0.007723,0.048672
0.007724,0.049922
0.007725,0.048672
0.007726,0.051172
0.007727,0.049922
0.007728,0.049922
0.007729,0.053672
0.00773,0.048672
0.007731,0.049922
0.007732,0.048672
0.007733,0.049922
0.007734,0.049922
0.007735,0.049922
0.007736,0.048672
0.007737,0.051172
0.007738,0.048672
0.007739,0.052422
0.00774,0.053672
0.007741,0.049922
0.007742,0.048672
0.007743,0.049922
0.007744,0.048672
0.007745,0.053672
0.007746,0.052422
0.007747,0.052422
0.007748,0.048672
0.007749,0.049922
0.00775,0.051172
0.007751,0.051172
0.007752,0.048672
0.007753,0.048672
0.007754,0.051172
0.007755,0.049922
0.007756,0.051172
0.007757,0.052422
0.007758,0.052422
0.007759,0.051172
0.00776,0.051172
0.007761,0.054922
0.007762,0.049922
0.007763,0.053672
0.007764,0.051172
0.007765,0.054922
0.007766,0.054922
0.007767,0.051172
0.007768,0.052422
0.007769,0.051172
0.00777,0.053672
0.007771,0.053672
0.007772,0.048672
0.007773,0.054922
0.007774,0.053672
0.007775,0.052422
0.007776,0.051172
0.007777,0.051172
0.007778,0.052422
0.007779,0.053672
0.00778,0.053672
0.007781,0.052422
0.007782,0.058672
0.007783,0.054922
0.007784,0.049922
0.007785,0.052422
0.007786,0.053672
0.007787,0.056172
0.007788,0.053672
0.007789,0.054922
0.00779,0.059922
0.007791,0.052422
0.007792,0.052422
0.007793,0.056172
0.007794,0.057422
0.007795,0.054922
0.007796,0.054922
0.007797,0.053672
0.007798,0.053672
0.007799,0.054922
0.0078,0.054922
0.007801,0.053672
0.007802,0.054922
0.007803,0.057422
0.007804,0.056172
0.007805,0.054922
0.007806,0.056172
0.007807,0.056172
0.007808,0.054922
0.007809,0.058672
0.00781,0.056172
0.007811,0.057422
0.007812,0.056172
0.007813,0.056172
0.007814,0.057422
0.007815,0.057422
0.007816,0.052422
0.007817,0.057422
0.007818,0.056172
0.007819,0.052422
0.00782,0.053672
0.007821,0.057422
0.007822,0.054922
0.007823,0.056172
0.007824,0.054922
0.007825,0.054922
0.007826,0.056172
0.007827,0.053672
0.007828,0.057422
0.007829,0.058672
0.00783,0.056172
0.007831,0.054922
0.007832,0.054922
0.007833,0.056172
0.007834,0.053672
0.007835,0.053672
0.007836,0.057422
0.007837,0.053672
0.007838,0.057422
0.007839,0.052422
0.00784,0.054922
0.007841,0.056172
0.007842,0.056172
0.007843,0.056172
0.007844,0.051172
0.007845,0.056172
0.007846,0.054922
0.007847,0.056172
0.007848,0.056172
0.007849,0.058672
0.00785,0.056172
0.007851,0.054922
0.007852,0.054922
0.007853,0.054922
0.007854,0.054922
0.007855,0.053672
0.007856,0.057422
0.007857,0.058672
0.007858,0.057422
0.007859,0.057422
0.00786,0.057422
0.007861,0.059922
0.007862,0.056172
0.007863,0.056172
0.007864,0.052422
0.007865,0.058672
0.007866,0.053672
0.007867,0.056172
0.007868,0.056172
0.007869,0.058672
0.00787,0.059922
0.007871,0.056172
0.007872,0.054922
0.007873,0.056172
0.007874,0.053672
0.007875,0.054922
0.007876,0.053672
0.007877,0.053672
0.007878,0.057422
0.007879,0.058672
0.00788,0.053672
0.007881,0.058672
0.007882,0.057422
0.007883,0.056172
0.007884,0.057422
0.007885,0.054922
0.007886,0.057422
0.007887,0.053672
0.007888,0.058672
0.007889,0.054922
0.00789,0.054922
0.007891,0.054922
0.007892,0.052422
0.007893,0.052422
0.007894,0.056172
0.007895,0.051172
0.007896,0.056172
0.007897,0.054922
0.007898,0.056172
0.007899,0.052422
0.0079,0.056172
0.007901,0.054922
0.007902,0.054922
0.007903,0.052422
0.007904,0.053672
0.007905,0.053672
0.007906,0.054922
0.007907,0.053672
0.007908,0.052422
0.007909,0.053672
0.00791,0.057422
0.007911,0.053672
0.007912,0.053672
0.007913,0.057422
0.007914,0.054922
0.007915,0.056172
0.007916,0.056172
0.007917,0.057422
0.007918,0.056172
0.007919,0.056172
0.00792,0.054922
0.007921,0.057422
0.007922,0.051172
0.007923,0.054922
0.007924,0.056172
0.007925,0.056172
0.007926,0.053672
0.007927,0.053672
0.007928,0.054922
0.007929,0.053672
0.00793,0.057422
0.007931,0.053672
0.007932,0.052422
0.007933,0.054922
0.007934,0.056172
0.007935,0.056172
0.007936,0.052422
0.007937,0.054922
0.007938,0.051172
0.007939,0.052422
0.00794,0.056172
0.007941,0.052422
0.007942,0.056172
0.007943,0.056172
0.007944,0.051172
0.007945,0.054922
0.007946,0.053672
0.007947,0.056172
0.007948,0.052422
0.007949,0.053672
0.00795,0.052422
0.007951,0.053672
0.007952,0.052422
0.007953,0.053672
0.007954,0.054922
0.007955,0.054922
0.007956,0.051172
0.007957,0.052422
0.007958,0.052422
0.007959,0.052422
0.00796,0.052422
0.007961,0.056172
0.007962,0.051172
0.007963,0.052422
0.007964,0.053672
0.007965,0.054922
0.007966,0.053672
0.007967,0.056172
0.007968,0.053672
0.007969,0.053672
0.00797,0.054922
0.007971,0.051172
0.007972,0.053672
0.007973,0.052422
0.007974,0.053672
0.007975,0.054922
0.007976,0.056172
0.007977,0.058672
0.007978,0.054922
0.007979,0.053672
0.00798,0.053672
0.007981,0.053672
0.007982,0.056172
0.007983,0.052422
0.007984,0.054922
0.007985,0.054922
0.007986,0.053672
0.007987,0.054922
0.007988,0.054922
0.007989,0.057422
0.00799,0.053672
0.007991,0.056172
0.007992,0.054922
0.007993,0.057422
0.007994,0.056172
0.007995,0.057422
0.007996,0.057422
0.007997,0.056172
0.007998,0.057422
0.007999,0.056172
0.008,0.053672
0.008001,0.059922
0.008002,0.053672
0.008003,0.059922
0.008004,0.057422
0.008005,0.061172
0.008006,0.057422
0.008007,0.057422
0.008008,0.056172
0.008009,0.056172
0.00801,0.058672
0.008011,0.061172
0.008012,0.059922
0.008013,0.061172
0.008014,0.059922
0.008015,0.058672
0.008016,0.059922
0.008017,0.062422
0.008018,0.062422
0.008019,0.061172
0.00802,0.057422
0.008021,0.058672
0.008022,0.058672
0.008023,0.058672
0.008024,0.057422
0.008025,0.061172
0.008026,0.059922
0.008027,0.061172
0.008028,0.064922
0.008029,0.063672
0.00803,0.063672
0.008031,0.066172
0.008032,0.062422
0.008033,0.063672
0.008034,0.064922
0.008035,0.063672
0.008036,0.063672
0.008037,0.068672
0.008038,0.064922
0.008039,0.068672
0.00804,0.061172
0.008041,0.064922
0.008042,0.068672
0.008043,0.068672
0.008044,0.067422
0.008045,0.069922
0.008046,0.066172
0.008047,0.067422
0.008048,0.068672
0.008049,0.071172
0.00805,0.072422
0.008051,0.068672
0.008052,0.069922
0.008053,0.072422
0.008054,0.072422
0.008055,0.073672
0.008056,0.072422
0.008057,0.071172
0.008058,0.073672
0.008059,0.071172
0.00806,0.069922
0.008061,0.072422
0.008062,0.076172
0.008063,0.073672
0.008064,0.072422
0.008065,0.076172
0.008066,0.078672
0.008067,0.073672
0.008068,0.076172
0.008069,0.077422
0.00807,0.074922
0.008071,0.078672
0.008072,0.076172
0.008073,0.079922
0.008074,0.079922
0.008075,0.079922
0.008076,0.078672
0.008077,0.081172
0.008078,0.083672
0.008079,0.082422
0.00808,0.082422
0.008081,0.082422
0.008082,0.082422
0.008083,0.081172
0.008084,0.087422
0.008085,0.083672
0.008086,0.088672
0.008087,0.084922
0.008088,0.083672
0.008089,0.086172
0.00809,0.088672
0.008091,0.087422
0.008092,0.091172
0.008093,0.087422
0.008094,0.087422
0.008095,0.092422
0.008096,0.089922
0.008097,0.088672
0.008098,0.089922
0.008099,0.091172
0.0081,0.089922
0.008101,0.092422
0.008102,0.092422
0.008103,0.093672
0.008104,0.092422
0.008105,0.096172
0.008106,0.092422
0.008107,0.093672
0.008108,0.092422
0.008109,0.096172
0.00811,0.096172
0.008111,0.096172
0.008112,0.094922
0.008113,0.097422
0.008114,0.101172
0.008115,0.097422
0.008116,0.096172
0.008117,0.097422
0.008118,0.098672
0.008119,0.101172
0.00812,0.097422
0.008121,0.101172
0.008122,0.094922
0.008123,0.101172
0.008124,0.098672
0.008125,0.098672
0.008126,0.101172
0.008127,0.097422
0.008128,0.099922
0.008129,0.101172
0.00813,0.101172
0.008131,0.101172
0.008132,0.098672
0.008133,0.101172
0.008134,0.101172
0.008135,0.101172
0.008136,0.099922
0.008137,0.102422
0.008138,0.106172
0.008139,0.103672
0.00814,0.097422
0.008141,0.106172
0.008142,0.107422
0.008143,0.104922
0.008144,0.104922
0.008145,0.101172
0.008146,0.106172
0.008147,0.102422
0.008148,0.103672
0.008149,0.104922
0.00815,0.102422
0.008151,0.104922
0.008152,0.102422
0.008153,0.102422
0.008154,0.098672
0.008155,0.101172
0.008156,0.101172
0.008157,0.102422
0.008158,0.102422
0.008159,0.102422
0.00816,0.106172
0.008161,0.101172
0.008162,0.103672
0.008163,0.104922
0.008164,0.099922
0.008165,0.106172
0.008166,0.098672
0.008167,0.101172
0.008168,0.103672
0.008169,0.103672
0.00817,0.102422
0.008171,0.101172
0.008172,0.098672
0.008173,0.103672
0.008174,0.101172
0.008175,0.098672
0.008176,0.098672
0.008177,0.099922
0.008178,0.101172
0.008179,0.101172
0.00818,0.098672
0.008181,0.099922
0.008182,0.102422
0.008183,0.098672
0.008184,0.097422
0.008185,0.096172
0.008186,0.099922
0.008187,0.098672
0.008188,0.097422
0.008189,0.097422
0.00819,0.096172
0.008191,0.097422
0.008192,0.099922
0.008193,0.094922
0.008194,0.098672
0.008195,0.098672
0.008196,0.092422
0.008197,0.099922
0.008198,0.097422
0.008199,0.096172
0.0082,0.093672
0.008201,0.098672
0.008202,0.093672
0.008203,0.091172
0.008204,0.092422
0.008205,0.093672
0.008206,0.093672
0.008207,0.093672
0.008208,0.092422
0.008209,0.089922
0.00821,0.091172
0.008211,0.093672
0.008212,0.089922
0.008213,0.087422
0.008214,0.089922
0.008215,0.088672
0.008216,0.084922
0.008217,0.091172
0.008218,0.091172
0.008219,0.089922
0.00822,0.086172
0.008221,0.091172
0.008222,0.086172
0.008223,0.084922
0.008224,0.087422
0.008225,0.086172
0.008226,0.087422
0.008227,0.086172
0.008228,0.086172
0.008229,0.083672
0.00823,0.084922
0.008231,0.083672
0.008232,0.084922
0.008233,0.084922
0.008234,0.081172
0.008235,0.084922
0.008236,0.079922
0.008237,0.079922
0.008238,0.081172
0.008239,0.079922
0.00824,0.078672
0.008241,0.077422
0.008242,0.083672
0.008243,0.083672
0.008244,0.078672
0.008245,0.081172
0.008246,0.078672
0.008247,0.078672
0.008248,0.077422
0.008249,0.077422
0.00825,0.077422
0.008251,0.078672
0.008252,0.074922
0.008253,0.077422
0.008254,0.074922
0.008255,0.074922
0.008256,0.074922
0.008257,0.074922
0.008258,0.076172
0.008259,0.072422
0.00826,0.074922
0.008261,0.079922
0.008262,0.072422
0.008263,0.074922
0.008264,0.073672
0.008265,0.076172
0.008266,0.069922
0.008267,0.072422
0.008268,0.068672
0.008269,0.071172
0.00827,0.073672
0.008271,0.071172
0.008272,0.069922
0.008273,0.071172
0.008274,0.071172
0.008275,0.069922
0.008276,0.069922
0.008277,0.069922
0.008278,0.068672
0.008279,0.068672
0.00828,0.066172
0.008281,0.066172
0.008282,0.068672
0.008283,0.067422
0.008284,0.067422
0.008285,0.066172
0.008286,0.068672
0.008287,0.066172
0.008288,0.067422
0.008289,0.064922
0.00829,0.064922
0.008291,0.066172
0.008292,0.066172
0.008293,0.064922
0.008294,0.066172
0.008295,0.066172
0.008296,0.064922
0.008297,0.062422
0.008298,0.064922
0.008299,0.063672
0.0083,0.062422
0.008301,0.068672
0.008302,0.062422
0.008303,0.062422
0.008304,0.062422
0.008305,0.064922
0.008306,0.063672
0.008307,0.062422
0.008308,0.062422
0.008309,0.061172
0.00831,0.062422
0.008311,0.062422
0.008312,0.062422
0.008313,0.058672
0.008314,0.061172
0.008315,0.062422
0.008316,0.064922
0.008317,0.059922
0.008318,0.062422
0.008319,0.062422
0.00832,0.061172
0.008321,0.058672
0.008322,0.061172
0.008323,0.057422
0.008324,0.058672
0.008325,0.058672
0.008326,0.059922
0.008327,0.059922
0.008328,0.056172
0.008329,0.058672
0.00833,0.058672
0.008331,0.059922
0.008332,0.057422
0.008333,0.058672
0.008334,0.057422
0.008335,0.058672
0.008336,0.056172
0.008337,0.058672
0.008338,0.056172
0.008339,0.058672
0.00834,0.052422
0.008341,0.056172
0.008342,0.057422
0.008343,0.057422
0.008344,0.054922
0.008345,0.059922
0.008346,0.053672
0.008347,0.056172
0.008348,0.051172
0.008349,0.058672
0.00835,0.056172
0.008351,0.056172
0.008352,0.054922
0.008353,0.058672
0.008354,0.053672
0.008355,0.054922
0.008356,0.053672
0.008357,0.053672
0.008358,0.052422
0.008359,0.052422
0.00836,0.053672
0.008361,0.051172
0.008362,0.053672
0.008363,0.054922
0.008364,0.051172
0.008365,0.053672
0.008366,0.052422
0.008367,0.049922
0.008368,0.049922
0.008369,0.052422
0.00837,0.053672
0.008371,0.053672
0.008372,0.049922
0.008373,0.051172
0.008374,0.051172
0.008375,0.053672
0.008376,0.049922
0.008377,0.051172
0.008378,0.051172
0.008379,0.051172
0.00838,0.049922
0.008381,0.053672
0.008382,0.047422
0.008383,0.048672
0.008384,0.049922
0.008385,0.052422
0.008386,0.049922
0.008387,0.051172
0.008388,0.048672
0.008389,0.048672
0.00839,0.049922
0.008391,0.053672
0.008392,0.047422
0.008393,0.051172
0.008394,0.047422
0.008395,0.052422
0.008396,0.051172
0.008397,0.048672
0.008398,0.048672
0.008399,0.048672
0.0084,0.048672
0.008401,0.051172
0.008402,0.046172
0.008403,0.049922
0.008404,0.048672
0.008405,0.048672
0.008406,0.049922
0.008407,0.049922
0.008408,0.048672
0.008409,0.048672
0.00841,0.046172
0.008411,0.046172
0.008412,0.048672
0.008413,0.048672
0.008414,0.047422
0.008415,0.044922
0.008416,0.046172
0.008417,0.047422
0.008418,0.049922
0.008419,0.046172
0.00842,0.046172
0.008421,0.046172
0.008422,0.046172
0.008423,0.047422
0.008424,0.049922
0.008425,0.047422
0.008426,0.043672
0.008427,0.046172
0.008428,0.046172
0.008429,0.046172
0.00843,0.047422
0.008431,0.044922
0.008432,0.044922
0.008433,0.047422
0.008434,0.046172
0.008435,0.047422
0.008436,0.043672
0.008437,0.047422
0.008438,0.043672
0.008439,0.046172
0.00844,0.048672
0.008441,0.046172
0.008442,0.042422
0.008443,0.048672
0.008444,0.044922
0.008445,0.046172
0.008446,0.043672
0.008447,0.046172
0.008448,0.046172
0.008449,0.044922
0.00845,0.047422
0.008451,0.047422
0.008452,0.041172
0.008453,0.046172
0.008454,0.041172
0.008455,0.046172
0.008456,0.043672
0.008457,0.043672
0.008458,0.046172
0.008459,0.046172
0.00846,0.046172
0.008461,0.046172
0.008462,0.043672
0.008463,0.043672
0.008464,0.042422
0.008465,0.046172
0.008466,0.043672
0.008467,0.044922
0.008468,0.047422
0.008469,0.044922
0.00847,0.042422
0.008471,0.044922
0.008472,0.043672
0.008473,0.044922
0.008474,0.043672
0.008475,0.049922
0.008476,0.044922
0.008477,0.048672
0.008478,0.044922
0.008479,0.043672
0.00848,0.044922
0.008481,0.043672
0.008482,0.046172
0.008483,0.046172
0.008484,0.041172
0.008485,0.047422
0.008486,0.046172
0.008487,0.044922
0.008488,0.043672
0.008489,0.047422
0.00849,0.042422
0.008491,0.042422
0.008492,0.041172
0.008493,0.046172
0.008494,0.043672
0.008495,0.047422
0.008496,0.044922
0.008497,0.043672
0.008498,0.044922
0.008499,0.042422
0.0085,0.044922
0.008501,0.048672
0.008502,0.043672
0.008503,0.043672
0.008504,0.042422
0.008505,0.044922
0.008506,0.043672
0.008507,0.044922
0.008508,0.046172
0.008509,0.043672
0.00851,0.044922
0.008511,0.042422
0.008512,0.044922
0.008513,0.043672
0.008514,0.039922
0.008515,0.044922
0.008516,0.043672
0.008517,0.047422
0.008518,0.043672
0.008519,0.044922
0.00852,0.043672
0.008521,0.043672
0.008522,0.043672
0.008523,0.043672
0.008524,0.044922
0.008525,0.044922
0.008526,0.042422
0.008527,0.046172
0.008528,0.046172
0.008529,0.046172
0.00853,0.039922
0.008531,0.044922
0.008532,0.039922
0.008533,0.044922
0.008534,0.043672
0.008535,0.043672
0.008536,0.042422
0.008537,0.046172
0.008538,0.044922
0.008539,0.044922
0.00854,0.046172
0.008541,0.044922
0.008542,0.043672
0.008543,0.041172
0.008544,0.042422
0.008545,0.044922
0.008546,0.043672
0.008547,0.042422
0.008548,0.038672
0.008549,0.044922
0.00855,0.043672
0.008551,0.044922
0.008552,0.038672
0.008553,0.041172
0.008554,0.043672
0.008555,0.046172
0.008556,0.042422
0.008557,0.047422
0.008558,0.044922
0.008559,0.044922
0.00856,0.042422
0.008561,0.046172
0.008562,0.044922
0.008563,0.048672
0.008564,0.044922
0.008565,0.042422
0.008566,0.047422
0.008567,0.047422
0.008568,0.043672
0.008569,0.042422
0.00857,0.046172
0.008571,0.043672
0.008572,0.042422
0.008573,0.043672
0.008574,0.042422
0.008575,0.048672
0.008576,0.044922
0.008577,0.046172
0.008578,0.041172
0.008579,0.043672
0.00858,0.043672
0.008581,0.046172
0.008582,0.046172
0.008583,0.043672
0.008584,0.042422
0.008585,0.046172
0.008586,0.044922
0.008587,0.041172
0.008588,0.042422
0.008589,0.043672
0.00859,0.042422
0.008591,0.044922
0.008592,0.041172
0.008593,0.043672
0.008594,0.042422
0.008595,0.044922
0.008596,0.041172
0.008597,0.046172
0.008598,0.044922
0.008599,0.043672
0.0086,0.044922
0.008601,0.043672
0.008602,0.043672
0.008603,0.044922
0.008604,0.043672
0.008605,0.047422
0.008606,0.043672
0.008607,0.043672
0.008608,0.041172
0.008609,0.046172
0.00861,0.044922
0.008611,0.044922
0.008612,0.042422
0.008613,0.043672
0.008614,0.043672
0.008615,0.044922
0.008616,0.042422
0.008617,0.047422
0.008618,0.046172
0.008619,0.044922
0.00862,0.043672
0.008621,0.046172
0.008622,0.047422
0.008623,0.046172
0.008624,0.042422
0.008625,0.048672
0.008626,0.046172
0.008627,0.043672
0.008628,0.046172
0.008629,0.043672
0.00863,0.046172
0.008631,0.047422
0.008632,0.042422
0.008633,0.042422
0.008634,0.043672
0.008635,0.046172
0.008636,0.043672
0.008637,0.046172
0.008638,0.046172
0.008639,0.044922
0.00864,0.047422
0.008641,0.049922
0.008642,0.046172
0.008643,0.046172
0.008644,0.044922
0.008645,0.042422
0.008646,0.046172
0.008647,0.044922
0.008648,0.044922
0.008649,0.046172
0.00865,0.047422
0.008651,0.047422
0.008652,0.043672
0.008653,0.046172
0.008654,0.047422
0.008655,0.044922
0.008656,0.047422
0.008657,0.044922
0.008658,0.047422
0.008659,0.043672
0.00866,0.044922
0.008661,0.047422
0.008662,0.044922
0.008663,0.044922
0.008664,0.046172
0.008665,0.043672
0.008666,0.047422
0.008667,0.044922
0.008668,0.046172
0.008669,0.049922
0.00867,0.046172
0.008671,0.046172
0.008672,0.046172
0.008673,0.048672
0.008674,0.047422
0.008675,0.048672
0.008676,0.048672
0.008677,0.047422
0.008678,0.048672
0.008679,0.047422
0.00868,0.044922
0.008681,0.046172
0.008682,0.046172
0.008683,0.047422
0.008684,0.048672
0.008685,0.049922
0.008686,0.046172
0.008687,0.048672
0.008688,0.044922
0.008689,0.048672
0.00869,0.046172
0.008691,0.048672
0.008692,0.047422
0.008693,0.048672
0.008694,0.046172
0.008695,0.048672
0.008696,0.048672
0.008697,0.048672
0.008698,0.051172
0.008699,0.051172
0.0087,0.048672
0.008701,0.053672
0.008702,0.048672
0.008703,0.048672
0.008704,0.049922
0.008705,0.048672
0.008706,0.046172
0.008707,0.048672
0.008708,0.046172
0.008709,0.051172
0.00871,0.053672
0.008711,0.048672
0.008712,0.047422
0.008713,0.051172
0.008714,0.047422
0.008715,0.047422
0.008716,0.049922
0.008717,0.049922
0.008718,0.049922
0.008719,0.052422
0.00872,0.053672
0.008721,0.047422
0.008722,0.052422
0.008723,0.052422
0.008724,0.051172
0.008725,0.052422
0.008726,0.052422
0.008727,0.053672
0.008728,0.048672
0.008729,0.051172
0.00873,0.047422
0.008731,0.047422
0.008732,0.051172
0.008733,0.049922
0.008734,0.048672
0.008735,0.049922
0.008736,0.051172
0.008737,0.051172
0.008738,0.051172
0.008739,0.049922
0.00874,0.047422
0.008741,0.049922
0.008742,0.053672
0.008743,0.049922
0.008744,0.049922
0.008745,0.052422
0.008746,0.051172
0.008747,0.052422
0.008748,0.052422
0.008749,0.049922
0.00875,0.054922
0.008751,0.051172
0.008752,0.052422
0.008753,0.052422
0.008754,0.049922
0.008755,0.057422
0.008756,0.053672
0.008757,0.054922
0.008758,0.051172
0.008759,0.052422
0.00876,0.051172
0.008761,0.052422
0.008762,0.053672
0.008763,0.052422
0.008764,0.052422
0.008765,0.052422
0.008766,0.049922
0.008767,0.054922
0.008768,0.049922
0.008769,0.052422
0.00877,0.053672
0.008771,0.052422
0.008772,0.046172
0.008773,0.054922
0.008774,0.054922
0.008775,0.052422
0.008776,0.054922
0.008777,0.053672
0.008778,0.051172
0.008779,0.053672
0.00878,0.054922
0.008781,0.053672
0.008782,0.049922
0.008783,0.052422
0.008784,0.052422
0.008785,0.053672
0.008786,0.053672
0.008787,0.053672
0.008788,0.053672
0.008789,0.054922
0.00879,0.054922
0.008791,0.057422
0.008792,0.053672
0.008793,0.054922
0.008794,0.056172
0.008795,0.051172
0.008796,0.052422
0.008797,0.053672
0.008798,0.054922
0.008799,0.056172
0.0088,0.052422
0.008801,0.054922
0.008802,0.052422
0.008803,0.056172
0.008804,0.052422
0.008805,0.052422
0.008806,0.053672
0.008807,0.053672
0.008808,0.051172
0.008809,0.056172
0.00881,0.056172
0.008811,0.054922
0.008812,0.053672
0.008813,0.057422
0.008814,0.057422
0.008815,0.059922
0.008816,0.056172
0.008817,0.057422
0.008818,0.053672
0.008819,0.056172
0.00882,0.053672
0.008821,0.054922
0.008822,0.058672
0.008823,0.057422
0.008824,0.056172
0.008825,0.059922
0.008826,0.057422
0.008827,0.056172
0.008828,0.054922
0.008829,0.056172
0.00883,0.058672
0.008831,0.057422
0.008832,0.054922
0.008833,0.057422
0.008834,0.056172
0.008835,0.056172
0.008836,0.057422
0.008837,0.058672
0.008838,0.059922
0.008839,0.058672
0.00884,0.057422
0.008841,0.059922
0.008842,0.057422
0.008843,0.056172
0.008844,0.052422
0.008845,0.058672
0.008846,0.056172
0.008847,0.051172
0.008848,0.052422
0.008849,0.057422
0.00885,0.052422
0.008851,0.056172
0.008852,0.053672
0.008853,0.057422
0.008854,0.056172
0.008855,0.057422
0.008856,0.058672
0.008857,0.056172
0.008858,0.052422
0.008859,0.056172
0.00886,0.054922
0.008861,0.054922
0.008862,0.057422
0.008863,0.058672
0.008864,0.054922
0.008865,0.058672
0.008866,0.054922
0.008867,0.054922
0.008868,0.054922
0.008869,0.057422
0.00887,0.058672
0.008871,0.054922
0.008872,0.056172
0.008873,0.059922
0.008874,0.058672
0.008875,0.057422
0.008876,0.054922
0.008877,0.056172
0.008878,0.053672
0.008879,0.057422
0.00888,0.052422
0.008881,0.057422
0.008882,0.056172
0.008883,0.058672
0.008884,0.057422
0.008885,0.056172
0.008886,0.056172
0.008887,0.057422
0.008888,0.053672
0.008889,0.057422
0.00889,0.056172
0.008891,0.058672
0.008892,0.054922
0.008893,0.056172
0.008894,0.054922
0.008895,0.057422
0.008896,0.054922
0.008897,0.057422
0.008898,0.057422
0.008899,0.058672
0.0089,0.056172
0.008901,0.059922
0.008902,0.054922
0.008903,0.057422
0.008904,0.054922
0.008905,0.053672
0.008906,0.056172
0.008907,0.054922
0.008908,0.054922
0.008909,0.054922
0.00891,0.056172
0.008911,0.051172
0.008912,0.053672
0.008913,0.057422
0.008914,0.053672
0.008915,0.056172
0.008916,0.053672
0.008917,0.053672
0.008918,0.052422
0.008919,0.054922
0.00892,0.053672
0.008921,0.054922
0.008922,0.054922
0.008923,0.051172
0.008924,0.052422
0.008925,0.056172
0.008926,0.056172
0.008927,0.052422
0.008928,0.052422
0.008929,0.053672
0.00893,0.052422
0.008931,0.052422
0.008932,0.056172
0.008933,0.053672
0.008934,0.054922
0.008935,0.054922
0.008936,0.051172
0.008937,0.056172
0.008938,0.052422
0.008939,0.054922
0.00894,0.054922
0.008941,0.054922
0.008942,0.053672
0.008943,0.054922
0.008944,0.053672
0.008945,0.051172
0.008946,0.054922
0.008947,0.053672
0.008948,0.057422
0.008949,0.058672
0.00895,0.054922
0.008951,0.054922
0.008952,0.051172
0.008953,0.053672
0.008954,0.056172
0.008955,0.053672
0.008956,0.052422
0.008957,0.052422
0.008958,0.054922
0.008959,0.053672
0.00896,0.056172
0.008961,0.052422
0.008962,0.053672
0.008963,0.053672
0.008964,0.052422
0.008965,0.052422
0.008966,0.052422
0.008967,0.053672
0.008968,0.052422
0.008969,0.053672
0.00897,0.052422
0.008971,0.052422
0.008972,0.052422
0.008973,0.054922
0.008974,0.052422
0.008975,0.054922
0.008976,0.051172
0.008977,0.056172
0.008978,0.054922
0.008979,0.053672
