Time (s),Voltage (V)
0.00334,0.026172
0.003341,0.031172
0.003342,0.019922
0.003343,0.027422
0.003344,0.026172
0.003345,0.026172
0.003346,0.028672
0.003347,0.026172
0.003348,0.026172
0.003349,0.027422
0.00335,0.023672
0.003351,0.026172
0.003352,0.026172
0.003353,0.026172
0.003354,0.026172
0.003355,0.029922
0.003356,0.024922
0.003357,0.026172
0.003358,0.024922
0.003359,0.031172
0.00336,0.028672
0.003361,0.026172
0.003362,0.027422
0.003363,0.031172
0.003364,0.024922
0.003365,0.027422
0.003366,0.026172
0.003367,0.026172
0.003368,0.028672
0.003369,0.026172
0.00337,0.024922
0.003371,0.027422
0.003372,0.027422
0.003373,0.026172
0.003374,0.024922
0.003375,0.029922
0.003376,0.029922
0.003377,0.027422
0.003378,0.029922
0.003379,0.027422
0.00338,0.028672
0.003381,0.026172
0.003382,0.022422
0.003383,0.028672
0.003384,0.028672
0.003385,0.026172
0.003386,0.031172
0.003387,0.028672
0.003388,0.028672
0.003389,0.028672
0.00339,0.027422
0.003391,0.026172
0.003392,0.029922
0.003393,0.029922
0.003394,0.027422
0.003395,0.027422
0.003396,0.028672
0.003397,0.029922
0.003398,0.027422
0.003399,0.029922
0.0034,0.029922
0.003401,0.028672
0.003402,0.026172
0.003403,0.027422
0.003404,0.027422
0.003405,0.029922
0.003406,0.028672
0.003407,0.024922
0.003408,0.026172
0.003409,0.026172
0.00341,0.028672
0.003411,0.027422
0.003412,0.027422
0.003413,0.027422
0.003414,0.026172
0.003415,0.028672
0.003416,0.028672
0.003417,0.027422
0.003418,0.026172
0.003419,0.028672
0.00342,0.029922
0.003421,0.028672
0.003422,0.028672
0.003423,0.027422
0.003424,0.029922
0.003425,0.029922
0.003426,0.026172
0.003427,0.026172
0.003428,0.028672
0.003429,0.029922
0.00343,0.026172
0.003431,0.029922
0.003432,0.027422
0.003433,0.031172
0.003434,0.026172
0.003435,0.028672
0.003436,0.026172
0.003437,0.029922
0.003438,0.023672
0.003439,0.026172
0.00344,0.026172
0.003441,0.027422
0.003442,0.027422
0.003443,0.026172
0.003444,0.024922
0.003445,0.028672
0.003446,0.023672
0.003447,0.028672
0.003448,0.024922
0.003449,0.029922
0.00345,0.022422
0.003451,0.027422
0.003452,0.027422
0.003453,0.027422
0.003454,0.028672
0.003455,0.031172
0.003456,0.026172
0.003457,0.031172
0.003458,0.028672
0.003459,0.028672
0.00346,0.026172
0.003461,0.028672
0.003462,0.031172
0.003463,0.027422
0.003464,0.029922
0.003465,0.029922
0.003466,0.027422
0.003467,0.028672
0.003468,0.028672
0.003469,0.029922
0.00347,0.028672
0.003471,0.032422
0.003472,0.031172
0.003473,0.028672
0.003474,0.024922
0.003475,0.029922
0.003476,0.031172
0.003477,0.028672
0.003478,0.029922
0.003479,0.029922
0.00348,0.031172
0.003481,0.031172
0.003482,0.032422
0.003483,0.028672
0.003484,0.026172
0.003485,0.029922
0.003486,0.028672
0.003487,0.029922
0.003488,0.026172
0.003489,0.026172
0.00349,0.027422
0.003491,0.028672
0.003492,0.028672
0.003493,0.027422
0.003494,0.028672
0.003495,0.027422
0.003496,0.029922
0.003497,0.027422
0.003498,0.028672
0.003499,0.024922
0.0035,0.028672
0.003501,0.028672
0.003502,0.031172
0.003503,0.029922
0.003504,0.031172
0.003505,0.028672
0.003506,0.026172
0.003507,0.028672
0.003508,0.026172
0.003509,0.028672
0.00351,0.024922
0.003511,0.028672
0.003512,0.028672
0.003513,0.029922
0.003514,0.027422
0.003515,0.026172
0.003516,0.028672
0.003517,0.027422
0.003518,0.029922
0.003519,0.031172
0.00352,0.029922
0.003521,0.029922
0.003522,0.028672
0.003523,0.031172
0.003524,0.027422
0.003525,0.029922
0.003526,0.028672
0.003527,0.029922
0.003528,0.029922
0.003529,0.029922
0.00353,0.023672
0.003531,0.031172
0.003532,0.031172
0.003533,0.029922
0.003534,0.027422
0.003535,0.027422
0.003536,0.028672
0.003537,0.027422
0.003538,0.027422
0.003539,0.033672
0.00354,0.029922
0.003541,0.033672
0.003542,0.026172
0.003543,0.029922
0.003544,0.031172
0.003545,0.031172
0.003546,0.026172
0.003547,0.027422
0.003548,0.026172
0.003549,0.027422
0.00355,0.027422
0.003551,0.026172
0.003552,0.031172
0.003553,0.031172
0.003554,0.031172
0.003555,0.029922
0.003556,0.027422
0.003557,0.029922
0.003558,0.028672
0.003559,0.027422
0.00356,0.029922
0.003561,0.026172
0.003562,0.027422
0.003563,0.029922
0.003564,0.024922
0.003565,0.029922
0.003566,0.028672
0.003567,0.029922
0.003568,0.028672
0.003569,0.028672
0.00357,0.027422
0.003571,0.034922
0.003572,0.029922
0.003573,0.033672
0.003574,0.029922
0.003575,0.028672
0.003576,0.031172
0.003577,0.028672
0.003578,0.032422
0.003579,0.032422
0.00358,0.032422
0.003581,0.029922
0.003582,0.027422
0.003583,0.032422
0.003584,0.031172
0.003585,0.027422
0.003586,0.028672
0.003587,0.029922
0.003588,0.029922
0.003589,0.028672
0.00359,0.029922
0.003591,0.029922
0.003592,0.032422
0.003593,0.024922
0.003594,0.029922
0.003595,0.028672
0.003596,0.028672
0.003597,0.029922
0.003598,0.027422
0.003599,0.029922
0.0036,0.031172
0.003601,0.028672
0.003602,0.031172
0.003603,0.034922
0.003604,0.029922
0.003605,0.027422
0.003606,0.029922
0.003607,0.032422
0.003608,0.031172
0.003609,0.032422
0.00361,0.028672
0.003611,0.031172
0.003612,0.028672
0.003613,0.029922
0.003614,0.028672
0.003615,0.031172
0.003616,0.029922
0.003617,0.028672
0.003618,0.029922
0.003619,0.031172
0.00362,0.033672
0.003621,0.032422
0.003622,0.031172
0.003623,0.028672
0.003624,0.031172
0.003625,0.031172
0.003626,0.029922
0.003627,0.032422
0.003628,0.029922
0.003629,0.032422
0.00363,0.031172
0.003631,0.033672
0.003632,0.029922
0.003633,0.032422
0.003634,0.034922
0.003635,0.034922
0.003636,0.033672
0.003637,0.036172
0.003638,0.028672
0.003639,0.033672
0.00364,0.032422
0.003641,0.033672
0.003642,0.032422
0.003643,0.032422
0.003644,0.032422
0.003645,0.034922
0.003646,0.031172
0.003647,0.034922
0.003648,0.034922
0.003649,0.033672
0.00365,0.033672
0.003651,0.034922
0.003652,0.034922
0.003653,0.034922
0.003654,0.033672
0.003655,0.038672
0.003656,0.037422
0.003657,0.031172
0.003658,0.034922
0.003659,0.037422
0.00366,0.038672
0.003661,0.034922
0.003662,0.034922
0.003663,0.041172
0.003664,0.036172
0.003665,0.036172
0.003666,0.038672
0.003667,0.039922
0.003668,0.038672
0.003669,0.037422
0.00367,0.037422
0.003671,0.039922
0.003672,0.037422
0.003673,0.039922
0.003674,0.036172
0.003675,0.038672
0.003676,0.039922
0.003677,0.037422
0.003678,0.036172
0.003679,0.038672
0.00368,0.039922
0.003681,0.041172
0.003682,0.037422
0.003683,0.041172
0.003684,0.043672
0.003685,0.038672
0.003686,0.037422
0.003687,0.042422
0.003688,0.042422
0.003689,0.038672
0.00369,0.039922
0.003691,0.041172
0.003692,0.041172
0.003693,0.037422
0.003694,0.042422
0.003695,0.042422
0.003696,0.041172
0.003697,0.041172
0.003698,0.043672
0.003699,0.043672
0.0037,0.044922
0.003701,0.042422
0.003702,0.041172
0.003703,0.042422
0.003704,0.044922
0.003705,0.039922
0.003706,0.039922
0.003707,0.042422
0.003708,0.041172
0.003709,0.039922
0.00371,0.039922
0.003711,0.042422
0.003712,0.042422
0.003713,0.041172
0.003714,0.042422
0.003715,0.041172
0.003716,0.042422
0.003717,0.043672
0.003718,0.043672
0.003719,0.049922
0.00372,0.044922
0.003721,0.041172
0.003722,0.043672
0.003723,0.046172
0.003724,0.046172
0.003725,0.043672
0.003726,0.043672
0.003727,0.042422
0.003728,0.043672
0.003729,0.043672
0.00373,0.042422
0.003731,0.044922
0.003732,0.043672
0.003733,0.046172
0.003734,0.043672
0.003735,0.043672
0.003736,0.042422
0.003737,0.043672
0.003738,0.043672
0.003739,0.041172
0.00374,0.042422
0.003741,0.043672
0.003742,0.042422
0.003743,0.044922
0.003744,0.043672
0.003745,0.044922
0.003746,0.044922
0.003747,0.044922
0.003748,0.043672
0.003749,0.047422
0.00375,0.038672
0.003751,0.046172
0.003752,0.046172
0.003753,0.041172
0.003754,0.039922
0.003755,0.044922
0.003756,0.042422
0.003757,0.041172
0.003758,0.044922
0.003759,0.046172
0.00376,0.039922
0.003761,0.042422
0.003762,0.038672
0.003763,0.044922
0.003764,0.043672
0.003765,0.044922
0.003766,0.043672
0.003767,0.041172
0.003768,0.044922
0.003769,0.043672
0.00377,0.038672
0.003771,0.041172
0.003772,0.041172
0.003773,0.042422
0.003774,0.041172
0.003775,0.039922
0.003776,0.038672
0.003777,0.042422
0.003778,0.037422
0.003779,0.042422
0.00378,0.038672
0.003781,0.039922
0.003782,0.041172
0.003783,0.042422
0.003784,0.037422
0.003785,0.037422
0.003786,0.039922
0.003787,0.039922
0.003788,0.038672
0.003789,0.039922
0.00379,0.041172
0.003791,0.039922
0.003792,0.042422
0.003793,0.038672
0.003794,0.037422
0.003795,0.038672
0.003796,0.037422
0.003797,0.038672
0.003798,0.036172
0.003799,0.041172
0.0038,0.037422
0.003801,0.039922
0.003802,0.036172
0.003803,0.039922
0.003804,0.037422
0.003805,0.038672
0.003806,0.038672
0.003807,0.037422
0.003808,0.036172
0.003809,0.034922
0.00381,0.034922
0.003811,0.036172
0.003812,0.037422
0.003813,0.032422
0.003814,0.031172
0.003815,0.037422
0.003816,0.037422
0.003817,0.037422
0.003818,0.036172
0.003819,0.037422
0.00382,0.034922
0.003821,0.034922
0.003822,0.036172
0.003823,0.036172
0.003824,0.029922
0.003825,0.033672
0.003826,0.036172
0.003827,0.038672
0.003828,0.033672
0.003829,0.033672
0.00383,0.032422
0.003831,0.034922
0.003832,0.034922
0.003833,0.032422
0.003834,0.033672
0.003835,0.034922
0.003836,0.032422
0.003837,0.033672
0.003838,0.032422
0.003839,0.033672
0.00384,0.031172
0.003841,0.032422
0.003842,0.031172
0.003843,0.032422
0.003844,0.034922
0.003845,0.032422
0.003846,0.032422
0.003847,0.032422
0.003848,0.033672
0.003849,0.032422
0.00385,0.031172
0.003851,0.032422
0.003852,0.031172
0.003853,0.029922
0.003854,0.033672
0.003855,0.034922
0.003856,0.027422
0.003857,0.033672
0.003858,0.032422
0.003859,0.034922
0.00386,0.028672
0.003861,0.032422
0.003862,0.029922
0.003863,0.033672
0.003864,0.029922
0.003865,0.034922
0.003866,0.032422
0.003867,0.028672
0.003868,0.032422
0.003869,0.029922
0.00387,0.029922
0.003871,0.029922
0.003872,0.031172
0.003873,0.031172
0.003874,0.027422
0.003875,0.032422
0.003876,0.028672
0.003877,0.031172
0.003878,0.031172
0.003879,0.032422
0.00388,0.033672
0.003881,0.027422
0.003882,0.027422
0.003883,0.031172
0.003884,0.028672
0.003885,0.028672
0.003886,0.023672
0.003887,0.032422
0.003888,0.027422
0.003889,0.028672
0.00389,0.029922
0.003891,0.028672
0.003892,0.029922
0.003893,0.028672
0.003894,0.026172
0.003895,0.028672
0.003896,0.031172
0.003897,0.026172
0.003898,0.028672
0.003899,0.027422
0.0039,0.026172
0.003901,0.028672
0.003902,0.026172
0.003903,0.028672
0.003904,0.029922
0.003905,0.031172
0.003906,0.026172
0.003907,0.029922
0.003908,0.031172
0.003909,0.027422
0.00391,0.029922
0.003911,0.026172
0.003912,0.027422
0.003913,0.028672
0.003914,0.026172
0.003915,0.026172
0.003916,0.028672
0.003917,0.027422
0.003918,0.027422
0.003919,0.029922
0.00392,0.028672
0.003921,0.029922
0.003922,0.028672
0.003923,0.032422
0.003924,0.031172
0.003925,0.026172
0.003926,0.028672
0.003927,0.028672
0.003928,0.027422
0.003929,0.029922
0.00393,0.028672
0.003931,0.026172
0.003932,0.031172
0.003933,0.027422
0.003934,0.024922
0.003935,0.027422
0.003936,0.028672
0.003937,0.027422
0.003938,0.027422
0.003939,0.029922
0.00394,0.027422
0.003941,0.026172
0.003942,0.027422
0.003943,0.026172
0.003944,0.024922
0.003945,0.026172
0.003946,0.022422
0.003947,0.026172
0.003948,0.024922
0.003949,0.026172
0.00395,0.026172
0.003951,0.031172
0.003952,0.029922
0.003953,0.024922
0.003954,0.023672
0.003955,0.026172
0.003956,0.028672
0.003957,0.024922
0.003958,0.024922
0.003959,0.026172
0.00396,0.023672
0.003961,0.028672
0.003962,0.028672
0.003963,0.024922
0.003964,0.028672
0.003965,0.028672
0.003966,0.027422
0.003967,0.026172
0.003968,0.024922
0.003969,0.024922
0.00397,0.023672
0.003971,0.024922
0.003972,0.026172
0.003973,0.024922
0.003974,0.026172
0.003975,0.024922
0.003976,0.027422
0.003977,0.027422
0.003978,0.026172
0.003979,0.027422
0.00398,0.029922
0.003981,0.023672
0.003982,0.024922
0.003983,0.024922
0.003984,0.023672
0.003985,0.023672
0.003986,0.026172
0.003987,0.026172
0.003988,0.026172
0.003989,0.028672
0.00399,0.023672
0.003991,0.023672
0.003992,0.026172
0.003993,0.026172
0.003994,0.026172
0.003995,0.028672
0.003996,0.028672
0.003997,0.023672
0.003998,0.024922
0.003999,0.026172
0.004,0.023672
0.004001,0.027422
0.004002,0.023672
0.004003,0.029922
0.004004,0.026172
0.004005,0.027422
0.004006,0.024922
0.004007,0.026172
0.004008,0.024922
0.004009,0.031172
0.00401,0.023672
0.004011,0.028672
0.004012,0.027422
0.004013,0.023672
0.004014,0.023672
0.004015,0.024922
0.004016,0.023672
0.004017,0.026172
0.004018,0.024922
0.004019,0.024922
0.00402,0.024922
0.004021,0.024922
0.004022,0.024922
0.004023,0.022422
0.004024,0.027422
0.004025,0.026172
0.004026,0.022422
0.004027,0.022422
0.004028,0.024922
0.004029,0.024922
0.00403,0.022422
0.004031,0.026172
0.004032,0.027422
0.004033,0.026172
0.004034,0.021172
0.004035,0.028672
0.004036,0.027422
0.004037,0.024922
0.004038,0.023672
0.004039,0.027422
0.00404,0.024922
0.004041,0.026172
0.004042,0.027422
0.004043,0.024922
0.004044,0.024922
0.004045,0.022422
0.004046,0.027422
0.004047,0.024922
0.004048,0.027422
0.004049,0.026172
0.00405,0.023672
0.004051,0.027422
0.004052,0.026172
0.004053,0.031172
0.004054,0.026172
0.004055,0.027422
0.004056,0.026172
0.004057,0.024922
0.004058,0.026172
0.004059,0.024922
0.00406,0.026172
0.004061,0.021172
0.004062,0.026172
0.004063,0.024922
0.004064,0.026172
0.004065,0.024922
0.004066,0.022422
0.004067,0.028672
0.004068,0.023672
0.004069,0.022422
0.00407,0.024922
0.004071,0.024922
0.004072,0.024922
0.004073,0.028672
0.004074,0.019922
0.004075,0.024922
0.004076,0.024922
0.004077,0.026172
0.004078,0.019922
0.004079,0.026172
0.00408,0.027422
0.004081,0.024922
0.004082,0.023672
0.004083,0.024922
0.004084,0.024922
0.004085,0.024922
0.004086,0.027422
0.004087,0.024922
0.004088,0.023672
0.004089,0.024922
0.00409,0.024922
0.004091,0.021172
0.004092,0.023672
0.004093,0.024922
0.004094,0.024922
0.004095,0.024922
0.004096,0.024922
0.004097,0.023672
0.004098,0.023672
0.004099,0.022422
0.0041,0.026172
0.004101,0.027422
0.004102,0.022422
0.004103,0.029922
0.004104,0.026172
0.004105,0.022422
0.004106,0.024922
0.004107,0.022422
0.004108,0.028672
0.004109,0.024922
0.00411,0.026172
0.004111,0.026172
0.004112,0.024922
0.004113,0.023672
0.004114,0.027422
0.004115,0.027422
0.004116,0.022422
0.004117,0.023672
0.004118,0.024922
0.004119,0.028672
0.00412,0.024922
0.004121,0.027422
0.004122,0.024922
0.004123,0.024922
0.004124,0.021172
0.004125,0.023672
0.004126,0.027422
0.004127,0.024922
0.004128,0.021172
0.004129,0.024922
0.00413,0.022422
0.004131,0.026172
0.004132,0.026172
0.004133,0.024922
0.004134,0.024922
0.004135,0.022422
0.004136,0.027422
0.004137,0.024922
0.004138,0.024922
0.004139,0.024922
0.00414,0.029922
0.004141,0.027422
0.004142,0.021172
0.004143,0.023672
0.004144,0.024922
0.004145,0.026172
0.004146,0.019922
0.004147,0.024922
0.004148,0.024922
0.004149,0.028672
0.00415,0.024922
0.004151,0.028672
0.004152,0.026172
0.004153,0.024922
0.004154,0.024922
0.004155,0.026172
0.004156,0.026172
0.004157,0.027422
0.004158,0.023672
0.004159,0.027422
0.00416,0.026172
0.004161,0.026172
0.004162,0.022422
0.004163,0.023672
0.004164,0.024922
0.004165,0.026172
0.004166,0.023672
0.004167,0.024922
0.004168,0.027422
0.004169,0.024922
0.00417,0.024922
0.004171,0.023672
0.004172,0.029922
0.004173,0.027422
0.004174,0.026172
0.004175,0.024922
0.004176,0.023672
0.004177,0.024922
0.004178,0.023672
0.004179,0.027422
0.00418,0.027422
0.004181,0.023672
0.004182,0.021172
0.004183,0.024922
0.004184,0.026172
0.004185,0.026172
0.004186,0.022422
0.004187,0.024922
0.004188,0.026172
0.004189,0.024922
0.00419,0.021172
0.004191,0.026172
0.004192,0.027422
0.004193,0.026172
0.004194,0.023672
0.004195,0.026172
0.004196,0.026172
0.004197,0.023672
0.004198,0.027422
0.004199,0.026172
0.0042,0.028672
0.004201,0.027422
0.004202,0.024922
0.004203,0.026172
0.004204,0.024922
0.004205,0.024922
0.004206,0.023672
0.004207,0.028672
0.004208,0.026172
0.004209,0.023672
0.00421,0.022422
0.004211,0.024922
0.004212,0.024922
0.004213,0.026172
0.004214,0.024922
0.004215,0.027422
0.004216,0.023672
0.004217,0.027422
0.004218,0.024922
0.004219,0.024922
0.00422,0.026172
0.004221,0.023672
0.004222,0.026172
0.004223,0.027422
0.004224,0.026172
0.004225,0.026172
0.004226,0.028672
0.004227,0.026172
0.004228,0.026172
0.004229,0.023672
0.00423,0.023672
0.004231,0.023672
0.004232,0.027422
0.004233,0.023672
0.004234,0.026172
0.004235,0.026172
0.004236,0.026172
0.004237,0.024922
0.004238,0.024922
0.004239,0.026172
0.00424,0.027422
0.004241,0.023672
0.004242,0.026172
0.004243,0.027422
0.004244,0.027422
0.004245,0.021172
0.004246,0.026172
0.004247,0.028672
0.004248,0.027422
0.004249,0.028672
0.00425,0.023672
0.004251,0.026172
0.004252,0.024922
0.004253,0.026172
0.004254,0.024922
0.004255,0.024922
0.004256,0.026172
0.004257,0.026172
0.004258,0.026172
0.004259,0.027422
0.00426,0.027422
0.004261,0.026172
0.004262,0.023672
0.004263,0.024922
0.004264,0.022422
0.004265,0.027422
0.004266,0.026172
0.004267,0.028672
0.004268,0.026172
0.004269,0.026172
0.00427,0.022422
0.004271,0.026172
0.004272,0.027422
0.004273,0.023672
0.004274,0.027422
0.004275,0.024922
0.004276,0.026172
0.004277,0.024922
0.004278,0.027422
0.004279,0.028672
0.00428,0.027422
0.004281,0.028672
0.004282,0.026172
0.004283,0.027422
0.004284,0.027422
0.004285,0.024922
0.004286,0.023672
0.004287,0.027422
0.004288,0.027422
0.004289,0.029922
0.00429,0.024922
0.004291,0.027422
0.004292,0.026172
0.004293,0.026172
0.004294,0.024922
0.004295,0.026172
0.004296,0.028672
0.004297,0.024922
0.004298,0.027422
0.004299,0.026172
0.0043,0.028672
0.004301,0.027422
0.004302,0.026172
0.004303,0.023672
0.004304,0.027422
0.004305,0.029922
0.004306,0.026172
0.004307,0.029922
0.004308,0.029922
0.004309,0.029922
0.00431,0.026172
0.004311,0.024922
0.004312,0.027422
0.004313,0.027422
0.004314,0.026172
0.004315,0.026172
0.004316,0.022422
0.004317,0.023672
0.004318,0.024922
0.004319,0.024922
0.00432,0.029922
0.004321,0.026172
0.004322,0.023672
0.004323,0.027422
0.004324,0.027422
0.004325,0.026172
0.004326,0.023672
0.004327,0.027422
0.004328,0.027422
0.004329,0.029922
0.00433,0.026172
0.004331,0.029922
0.004332,0.026172
0.004333,0.028672
0.004334,0.023672
0.004335,0.028672
0.004336,0.026172
0.004337,0.028672
0.004338,0.027422
0.004339,0.027422
0.00434,0.031172
0.004341,0.028672
0.004342,0.027422
0.004343,0.027422
0.004344,0.029922
0.004345,0.026172
0.004346,0.026172
0.004347,0.028672
0.004348,0.027422
0.004349,0.029922
0.00435,0.026172
0.004351,0.027422
0.004352,0.026172
0.004353,0.027422
0.004354,0.026172
0.004355,0.026172
0.004356,0.027422
0.004357,0.028672
0.004358,0.024922
0.004359,0.028672
0.00436,0.028672
0.004361,0.028672
0.004362,0.027422
0.004363,0.031172
0.004364,0.027422
0.004365,0.029922
0.004366,0.026172
0.004367,0.026172
0.004368,0.027422
0.004369,0.028672
0.00437,0.023672
0.004371,0.026172
0.004372,0.024922
0.004373,0.024922
0.004374,0.024922
0.004375,0.029922
0.004376,0.026172
0.004377,0.031172
0.004378,0.026172
0.004379,0.029922
0.00438,0.027422
0.004381,0.028672
0.004382,0.029922
0.004383,0.027422
0.004384,0.026172
0.004385,0.028672
0.004386,0.023672
0.004387,0.028672
0.004388,0.029922
0.004389,0.029922
0.00439,0.028672
0.004391,0.026172
0.004392,0.026172
0.004393,0.031172
0.004394,0.028672
0.004395,0.024922
0.004396,0.028672
0.004397,0.029922
0.004398,0.028672
0.004399,0.027422
0.0044,0.027422
0.004401,0.031172
0.004402,0.026172
0.004403,0.027422
0.004404,0.028672
0.004405,0.028672
0.004406,0.026172
0.004407,0.029922
0.004408,0.029922
0.004409,0.027422
0.00441,0.029922
0.004411,0.032422
0.004412,0.032422
0.004413,0.028672
0.004414,0.028672
0.004415,0.026172
0.004416,0.027422
0.004417,0.028672
0.004418,0.028672
0.004419,0.028672
0.00442,0.027422
0.004421,0.027422
0.004422,0.029922
0.004423,0.029922
0.004424,0.027422
0.004425,0.027422
0.004426,0.026172
0.004427,0.029922
0.004428,0.028672
0.004429,0.029922
0.00443,0.022422
0.004431,0.029922
0.004432,0.031172
0.004433,0.027422
0.004434,0.028672
0.004435,0.032422
0.004436,0.026172
0.004437,0.031172
0.004438,0.027422
0.004439,0.027422
0.00444,0.028672
0.004441,0.031172
0.004442,0.027422
0.004443,0.027422
0.004444,0.029922
0.004445,0.024922
0.004446,0.026172
0.004447,0.028672
0.004448,0.027422
0.004449,0.026172
0.00445,0.031172
0.004451,0.028672
0.004452,0.027422
0.004453,0.026172
0.004454,0.027422
0.004455,0.027422
0.004456,0.029922
0.004457,0.027422
0.004458,0.026172
0.004459,0.028672
0.00446,0.029922
0.004461,0.026172
0.004462,0.029922
0.004463,0.027422
0.004464,0.027422
0.004465,0.028672
0.004466,0.027422
0.004467,0.029922
0.004468,0.028672
0.004469,0.026172
0.00447,0.027422
0.004471,0.029922
0.004472,0.027422
0.004473,0.026172
0.004474,0.023672
0.004475,0.031172
0.004476,0.028672
0.004477,0.028672
0.004478,0.027422
0.004479,0.029922
0.00448,0.028672
0.004481,0.031172
0.004482,0.028672
0.004483,0.034922
0.004484,0.027422
0.004485,0.026172
0.004486,0.028672
0.004487,0.029922
0.004488,0.029922
0.004489,0.028672
0.00449,0.028672
0.004491,0.028672
0.004492,0.027422
0.004493,0.028672
0.004494,0.024922
0.004495,0.027422
0.004496,0.028672
0.004497,0.027422
0.004498,0.026172
0.004499,0.027422
0.0045,0.032422
0.004501,0.028672
0.004502,0.028672
0.004503,0.026172
0.004504,0.027422
0.004505,0.029922
0.004506,0.027422
0.004507,0.028672
0.004508,0.029922
0.004509,0.028672
0.00451,0.028672
0.004511,0.027422
0.004512,0.028672
0.004513,0.028672
0.004514,0.027422
0.004515,0.029922
0.004516,0.026172
0.004517,0.026172
0.004518,0.023672
0.004519,0.026172
0.00452,0.027422
0.004521,0.026172
0.004522,0.024922
0.004523,0.029922
0.004524,0.028672
0.004525,0.026172
0.004526,0.027422
0.004527,0.031172
0.004528,0.028672
0.004529,0.029922
0.00453,0.028672
0.004531,0.028672
0.004532,0.028672
0.004533,0.024922
0.004534,0.024922
0.004535,0.024922
0.004536,0.031172
0.004537,0.031172
0.004538,0.028672
0.004539,0.029922
0.00454,0.029922
0.004541,0.026172
0.004542,0.027422
0.004543,0.027422
0.004544,0.029922
0.004545,0.028672
0.004546,0.026172
0.004547,0.029922
0.004548,0.028672
0.004549,0.028672
0.00455,0.026172
0.004551,0.029922
0.004552,0.028672
0.004553,0.028672
0.004554,0.027422
0.004555,0.031172
0.004556,0.031172
0.004557,0.033672
0.004558,0.027422
0.004559,0.029922
0.00456,0.032422
0.004561,0.032422
0.004562,0.028672
0.004563,0.029922
0.004564,0.031172
0.004565,0.029922
0.004566,0.027422
0.004567,0.029922
0.004568,0.027422
0.004569,0.028672
0.00457,0.028672
0.004571,0.031172
0.004572,0.028672
0.004573,0.028672
0.004574,0.028672
0.004575,0.027422
0.004576,0.027422
0.004577,0.029922
0.004578,0.028672
0.004579,0.029922
0.00458,0.031172
0.004581,0.029922
0.004582,0.027422
0.004583,0.027422
0.004584,0.026172
0.004585,0.031172
0.004586,0.031172
0.004587,0.028672
0.004588,0.031172
0.004589,0.029922
0.00459,0.027422
0.004591,0.028672
0.004592,0.032422
0.004593,0.027422
0.004594,0.029922
0.004595,0.029922
0.004596,0.031172
0.004597,0.031172
0.004598,0.029922
0.004599,0.031172
0.0046,0.032422
0.004601,0.031172
0.004602,0.028672
0.004603,0.029922
0.004604,0.026172
0.004605,0.031172
0.004606,0.029922
0.004607,0.029922
0.004608,0.029922
0.004609,0.031172
0.00461,0.031172
0.004611,0.031172
0.004612,0.031172
0.004613,0.031172
0.004614,0.031172
0.004615,0.032422
0.004616,0.032422
0.004617,0.029922
0.004618,0.033672
0.004619,0.032422
0.00462,0.028672
0.004621,0.033672
0.004622,0.031172
0.004623,0.033672
0.004624,0.032422
0.004625,0.031172
0.004626,0.032422
0.004627,0.032422
0.004628,0.032422
0.004629,0.032422
0.00463,0.029922
0.004631,0.033672
0.004632,0.031172
0.004633,0.033672
0.004634,0.034922
0.004635,0.033672
0.004636,0.033672
0.004637,0.031172
0.004638,0.034922
0.004639,0.031172
0.00464,0.034922
0.004641,0.033672
0.004642,0.032422
0.004643,0.036172
0.004644,0.034922
0.004645,0.039922
0.004646,0.033672
0.004647,0.033672
0.004648,0.034922
0.004649,0.033672
0.00465,0.033672
0.004651,0.036172
0.004652,0.038672
0.004653,0.034922
0.004654,0.033672
0.004655,0.037422
0.004656,0.036172
0.004657,0.036172
0.004658,0.036172
0.004659,0.036172
0.00466,0.037422
0.004661,0.038672
0.004662,0.032422
0.004663,0.037422
0.004664,0.038672
0.004665,0.038672
0.004666,0.034922
0.004667,0.038672
0.004668,0.036172
0.004669,0.038672
0.00467,0.034922
0.004671,0.039922
0.004672,0.038672
0.004673,0.037422
0.004674,0.036172
0.004675,0.038672
0.004676,0.043672
0.004677,0.037422
0.004678,0.037422
0.004679,0.037422
0.00468,0.041172
0.004681,0.038672
0.004682,0.041172
0.004683,0.043672
0.004684,0.039922
0.004685,0.039922
0.004686,0.042422
0.004687,0.041172
0.004688,0.043672
0.004689,0.038672
0.00469,0.042422
0.004691,0.041172
0.004692,0.039922
0.004693,0.039922
0.004694,0.043672
0.004695,0.044922
0.004696,0.039922
0.004697,0.042422
0.004698,0.039922
0.004699,0.042422
0.0047,0.041172
0.004701,0.042422
0.004702,0.039922
0.004703,0.042422
0.004704,0.046172
0.004705,0.039922
0.004706,0.039922
0.004707,0.047422
0.004708,0.042422
0.004709,0.047422
0.00471,0.044922
0.004711,0.042422
0.004712,0.043672
0.004713,0.042422
0.004714,0.038672
0.004715,0.043672
0.004716,0.043672
0.004717,0.041172
0.004718,0.043672
0.004719,0.044922
0.00472,0.044922
0.004721,0.042422
0.004722,0.043672
0.004723,0.044922
0.004724,0.043672
0.004725,0.041172
0.004726,0.041172
0.004727,0.043672
0.004728,0.043672
0.004729,0.046172
0.00473,0.043672
0.004731,0.046172
0.004732,0.043672
0.004733,0.043672
0.004734,0.042422
0.004735,0.043672
0.004736,0.047422
0.004737,0.042422
0.004738,0.042422
0.004739,0.043672
0.00474,0.046172
0.004741,0.046172
0.004742,0.042422
0.004743,0.044922
0.004744,0.043672
0.004745,0.043672
0.004746,0.043672
0.004747,0.047422
0.004748,0.041172
0.004749,0.043672
0.00475,0.042422
0.004751,0.043672
0.004752,0.041172
0.004753,0.041172
0.004754,0.041172
0.004755,0.042422
0.004756,0.044922
0.004757,0.043672
0.004758,0.042422
0.004759,0.041172
0.00476,0.042422
0.004761,0.043672
0.004762,0.039922
0.004763,0.043672
0.004764,0.044922
0.004765,0.039922
0.004766,0.041172
0.004767,0.043672
0.004768,0.043672
0.004769,0.038672
0.00477,0.038672
0.004771,0.042422
0.004772,0.042422
0.004773,0.039922
0.004774,0.041172
0.004775,0.042422
0.004776,0.042422
0.004777,0.043672
0.004778,0.039922
0.004779,0.041172
0.00478,0.041172
0.004781,0.039922
0.004782,0.041172
0.004783,0.041172
0.004784,0.041172
0.004785,0.042422
0.004786,0.038672
0.004787,0.037422
0.004788,0.041172
0.004789,0.037422
0.00479,0.038672
0.004791,0.041172
0.004792,0.036172
0.004793,0.037422
0.004794,0.037422
0.004795,0.039922
0.004796,0.038672
0.004797,0.034922
0.004798,0.036172
0.004799,0.034922
0.0048,0.034922
0.004801,0.038672
0.004802,0.037422
0.004803,0.036172
0.004804,0.037422
0.004805,0.033672
0.004806,0.033672
0.004807,0.036172
0.004808,0.038672
0.004809,0.037422
0.00481,0.034922
0.004811,0.034922
0.004812,0.034922
0.004813,0.036172
0.004814,0.036172
0.004815,0.038672
0.004816,0.034922
0.004817,0.033672
0.004818,0.034922
0.004819,0.034922
0.00482,0.034922
0.004821,0.034922
0.004822,0.033672
0.004823,0.033672
0.004824,0.036172
0.004825,0.034922
0.004826,0.034922
0.004827,0.038672
0.004828,0.036172
0.004829,0.032422
0.00483,0.033672
0.004831,0.033672
0.004832,0.034922
0.004833,0.033672
0.004834,0.031172
0.004835,0.034922
0.004836,0.032422
0.004837,0.036172
0.004838,0.031172
0.004839,0.031172
0.00484,0.033672
0.004841,0.032422
0.004842,0.034922
0.004843,0.032422
0.004844,0.036172
0.004845,0.036172
0.004846,0.031172
0.004847,0.029922
0.004848,0.033672
0.004849,0.029922
0.00485,0.029922
0.004851,0.036172
0.004852,0.031172
0.004853,0.029922
0.004854,0.029922
0.004855,0.033672
0.004856,0.031172
0.004857,0.033672
0.004858,0.028672
0.004859,0.033672
0.00486,0.029922
0.004861,0.029922
0.004862,0.032422
0.004863,0.033672
0.004864,0.031172
0.004865,0.029922
0.004866,0.028672
0.004867,0.032422
0.004868,0.028672
0.004869,0.029922
0.00487,0.032422
0.004871,0.031172
0.004872,0.031172
0.004873,0.031172
0.004874,0.028672
0.004875,0.034922
0.004876,0.031172
0.004877,0.031172
0.004878,0.031172
0.004879,0.028672
0.00488,0.032422
0.004881,0.028672
0.004882,0.029922
0.004883,0.032422
0.004884,0.029922
0.004885,0.024922
0.004886,0.024922
0.004887,0.027422
0.004888,0.032422
0.004889,0.029922
0.00489,0.028672
0.004891,0.031172
0.004892,0.027422
0.004893,0.028672
0.004894,0.028672
0.004895,0.029922
0.004896,0.027422
0.004897,0.029922
0.004898,0.031172
0.004899,0.028672
0.0049,0.028672
0.004901,0.032422
0.004902,0.031172
0.004903,0.031172
0.004904,0.031172
0.004905,0.029922
0.004906,0.026172
0.004907,0.026172
0.004908,0.028672
0.004909,0.028672
0.00491,0.027422
0.004911,0.028672
0.004912,0.028672
0.004913,0.029922
0.004914,0.028672
0.004915,0.028672
0.004916,0.028672
0.004917,0.028672
0.004918,0.027422
0.004919,0.029922
0.00492,0.026172
0.004921,0.026172
0.004922,0.026172
0.004923,0.028672
0.004924,0.028672
0.004925,0.028672
0.004926,0.028672
0.004927,0.029922
0.004928,0.029922
0.004929,0.028672
0.00493,0.028672
0.004931,0.027422
0.004932,0.028672
0.004933,0.027422
0.004934,0.024922
0.004935,0.028672
0.004936,0.028672
0.004937,0.029922
0.004938,0.026172
0.004939,0.026172
0.00494,0.029922
0.004941,0.027422
0.004942,0.026172
0.004943,0.024922
0.004944,0.031172
0.004945,0.027422
0.004946,0.027422
0.004947,0.026172
0.004948,0.026172
0.004949,0.028672
0.00495,0.026172
0.004951,0.026172
0.004952,0.026172
0.004953,0.027422
0.004954,0.024922
0.004955,0.028672
0.004956,0.027422
0.004957,0.026172
0.004958,0.026172
0.004959,0.029922
0.00496,0.023672
0.004961,0.028672
0.004962,0.028672
0.004963,0.029922
0.004964,0.028672
0.004965,0.028672
0.004966,0.027422
0.004967,0.028672
0.004968,0.029922
0.004969,0.027422
0.00497,0.023672
0.004971,0.027422
0.004972,0.026172
0.004973,0.028672
0.004974,0.024922
0.004975,0.027422
0.004976,0.026172
0.004977,0.026172
0.004978,0.026172
0.004979,0.027422
0.00498,0.028672
0.004981,0.026172
0.004982,0.027422
0.004983,0.026172
0.004984,0.026172
0.004985,0.024922
0.004986,0.031172
0.004987,0.024922
0.004988,0.027422
0.004989,0.026172
0.00499,0.024922
0.004991,0.023672
0.004992,0.024922
0.004993,0.024922
0.004994,0.024922
0.004995,0.024922
0.004996,0.024922
0.004997,0.024922
0.004998,0.022422
0.004999,0.024922
0.005,0.027422
0.005001,0.028672
0.005002,0.024922
0.005003,0.026172
0.005004,0.026172
0.005005,0.026172
0.005006,0.024922
0.005007,0.024922
0.005008,0.027422
0.005009,0.026172
0.00501,0.024922
0.005011,0.024922
0.005012,0.026172
0.005013,0.024922
0.005014,0.023672
0.005015,0.024922
0.005016,0.023672
0.005017,0.026172
0.005018,0.023672
0.005019,0.024922
0.00502,0.023672
0.005021,0.026172
0.005022,0.024922
0.005023,0.024922
0.005024,0.023672
0.005025,0.023672
0.005026,0.023672
0.005027,0.028672
0.005028,0.023672
0.005029,0.026172
0.00503,0.023672
0.005031,0.024922
0.005032,0.023672
0.005033,0.026172
0.005034,0.024922
0.005035,0.024922
0.005036,0.024922
0.005037,0.027422
0.005038,0.021172
0.005039,0.028672
0.00504,0.026172
0.005041,0.024922
0.005042,0.026172
0.005043,0.023672
0.005044,0.024922
0.005045,0.023672
0.005046,0.024922
0.005047,0.023672
0.005048,0.026172
0.005049,0.026172
0.00505,0.019922
0.005051,0.024922
0.005052,0.024922
0.005053,0.023672
0.005054,0.023672
0.005055,0.024922
0.005056,0.026172
0.005057,0.024922
0.005058,0.023672
0.005059,0.023672
0.00506,0.027422
0.005061,0.023672
0.005062,0.022422
0.005063,0.026172
0.005064,0.023672
0.005065,0.024922
0.005066,0.024922
0.005067,0.024922
0.005068,0.024922
0.005069,0.022422
0.00507,0.024922
0.005071,0.026172
0.005072,0.028672
0.005073,0.026172
0.005074,0.019922
0.005075,0.027422
0.005076,0.026172
0.005077,0.026172
0.005078,0.027422
0.005079,0.024922
0.00508,0.027422
0.005081,0.026172
0.005082,0.023672
0.005083,0.024922
0.005084,0.024922
0.005085,0.023672
0.005086,0.022422
0.005087,0.024922
0.005088,0.027422
0.005089,0.023672
0.00509,0.023672
0.005091,0.023672
0.005092,0.026172
0.005093,0.022422
0.005094,0.021172
0.005095,0.024922
0.005096,0.026172
0.005097,0.027422
0.005098,0.023672
0.005099,0.024922
0.0051,0.023672
0.005101,0.027422
0.005102,0.021172
0.005103,0.024922
0.005104,0.024922
0.005105,0.022422
0.005106,0.022422
0.005107,0.022422
0.005108,0.027422
0.005109,0.023672
0.00511,0.022422
0.005111,0.026172
0.005112,0.026172
0.005113,0.024922
0.005114,0.026172
0.005115,0.024922
0.005116,0.028672
0.005117,0.028672
0.005118,0.022422
0.005119,0.024922
0.00512,0.026172
0.005121,0.026172
0.005122,0.023672
0.005123,0.023672
0.005124,0.023672
0.005125,0.023672
0.005126,0.026172
0.005127,0.026172
0.005128,0.027422
0.005129,0.023672
0.00513,0.024922
0.005131,0.027422
0.005132,0.027422
0.005133,0.024922
0.005134,0.022422
0.005135,0.026172
0.005136,0.026172
0.005137,0.023672
0.005138,0.023672
0.005139,0.026172
0.00514,0.026172
0.005141,0.027422
0.005142,0.028672
0.005143,0.026172
0.005144,0.026172
0.005145,0.024922
0.005146,0.024922
0.005147,0.024922
0.005148,0.026172
0.005149,0.026172
0.00515,0.022422
0.005151,0.022422
0.005152,0.024922
0.005153,0.029922
0.005154,0.027422
0.005155,0.023672
0.005156,0.023672
0.005157,0.028672
0.005158,0.024922
0.005159,0.024922
0.00516,0.026172
0.005161,0.026172
0.005162,0.023672
0.005163,0.028672
0.005164,0.026172
0.005165,0.024922
0.005166,0.023672
0.005167,0.027422
0.005168,0.022422
0.005169,0.026172
0.00517,0.023672
0.005171,0.023672
0.005172,0.027422
0.005173,0.023672
0.005174,0.023672
0.005175,0.026172
0.005176,0.024922
0.005177,0.024922
0.005178,0.024922
0.005179,0.024922
0.00518,0.023672
0.005181,0.028672
0.005182,0.024922
0.005183,0.022422
0.005184,0.026172
0.005185,0.023672
0.005186,0.027422
0.005187,0.024922
0.005188,0.023672
0.005189,0.024922
0.00519,0.022422
0.005191,0.026172
0.005192,0.024922
0.005193,0.027422
0.005194,0.028672
0.005195,0.028672
0.005196,0.023672
0.005197,0.026172
0.005198,0.022422
0.005199,0.023672
0.0052,0.024922
0.005201,0.024922
0.005202,0.023672
0.005203,0.023672
0.005204,0.022422
0.005205,0.027422
0.005206,0.023672
0.005207,0.029922
0.005208,0.026172
0.005209,0.024922
0.00521,0.023672
0.005211,0.026172
0.005212,0.026172
0.005213,0.026172
0.005214,0.026172
0.005215,0.027422
0.005216,0.027422
0.005217,0.024922
0.005218,0.021172
0.005219,0.024922
0.00522,0.026172
0.005221,0.023672
0.005222,0.022422
0.005223,0.026172
0.005224,0.026172
0.005225,0.024922
0.005226,0.027422
0.005227,0.024922
0.005228,0.022422
0.005229,0.023672
0.00523,0.023672
0.005231,0.023672
0.005232,0.027422
0.005233,0.028672
0.005234,0.023672
0.005235,0.026172
0.005236,0.026172
0.005237,0.027422
0.005238,0.028672
0.005239,0.026172
0.00524,0.031172
0.005241,0.023672
0.005242,0.026172
0.005243,0.026172
0.005244,0.027422
0.005245,0.022422
0.005246,0.026172
0.005247,0.027422
0.005248,0.027422
0.005249,0.028672
0.00525,0.023672
0.005251,0.026172
0.005252,0.026172
0.005253,0.024922
0.005254,0.027422
0.005255,0.026172
0.005256,0.024922
0.005257,0.024922
0.005258,0.022422
0.005259,0.027422
0.00526,0.026172
0.005261,0.024922
0.005262,0.024922
0.005263,0.023672
0.005264,0.026172
0.005265,0.027422
0.005266,0.026172
0.005267,0.028672
0.005268,0.027422
0.005269,0.027422
0.00527,0.024922
0.005271,0.026172
0.005272,0.023672
0.005273,0.027422
0.005274,0.022422
0.005275,0.027422
0.005276,0.026172
0.005277,0.026172
0.005278,0.026172
0.005279,0.022422
0.00528,0.027422
0.005281,0.027422
0.005282,0.023672
0.005283,0.028672
0.005284,0.026172
0.005285,0.028672
0.005286,0.024922
0.005287,0.029922
0.005288,0.023672
0.005289,0.026172
0.00529,0.023672
0.005291,0.026172
0.005292,0.024922
0.005293,0.026172
0.005294,0.028672
0.005295,0.024922
0.005296,0.027422
0.005297,0.028672
0.005298,0.026172
0.005299,0.024922
0.0053,0.027422
0.005301,0.028672
0.005302,0.024922
0.005303,0.026172
0.005304,0.027422
0.005305,0.027422
0.005306,0.026172
0.005307,0.024922
0.005308,0.028672
0.005309,0.026172
0.00531,0.026172
0.005311,0.028672
0.005312,0.031172
0.005313,0.027422
0.005314,0.022422
0.005315,0.029922
0.005316,0.024922
0.005317,0.027422
0.005318,0.026172
0.005319,0.029922
0.00532,0.027422
0.005321,0.022422
0.005322,0.024922
0.005323,0.024922
0.005324,0.028672
0.005325,0.028672
0.005326,0.027422
0.005327,0.028672
0.005328,0.028672
0.005329,0.027422
0.00533,0.026172
0.005331,0.026172
0.005332,0.026172
0.005333,0.029922
0.005334,0.024922
0.005335,0.028672
0.005336,0.028672
0.005337,0.024922
0.005338,0.027422
0.005339,0.028672
