Time (s),Voltage (V)
0.002835,0.033672
0.002836,0.038672
0.002837,0.037422
0.002838,0.034922
0.002839,0.034922
0.00284,0.036172
0.002841,0.037422
0.002842,0.034922
0.002843,0.033672
0.002844,0.034922
0.002845,0.036172
0.002846,0.029922
0.002847,0.032422
0.002848,0.031172
0.002849,0.032422
0.00285,0.032422
0.002851,0.033672
0.002852,0.036172
0.002853,0.031172
0.002854,0.032422
0.002855,0.032422
0.002856,0.033672
0.002857,0.032422
0.002858,0.034922
0.002859,0.033672
0.00286,0.036172
0.002861,0.034922
0.002862,0.036172
0.002863,0.031172
0.002864,0.034922
0.002865,0.031172
0.002866,0.037422
0.002867,0.031172
0.002868,0.034922
0.002869,0.032422
0.00287,0.033672
0.002871,0.033672
0.002872,0.034922
0.002873,0.036172
0.002874,0.033672
0.002875,0.032422
0.002876,0.034922
0.002877,0.032422
0.002878,0.031172
0.002879,0.029922
0.00288,0.033672
0.002881,0.034922
0.002882,0.033672
0.002883,0.029922
0.002884,0.033672
0.002885,0.031172
0.002886,0.033672
0.002887,0.032422
0.002888,0.033672
0.002889,0.031172
0.00289,0.033672
0.002891,0.031172
0.002892,0.033672
0.002893,0.033672
0.002894,0.033672
0.002895,0.032422
0.002896,0.034922
0.002897,0.033672
0.002898,0.031172
0.002899,0.033672
0.0029,0.027422
0.002901,0.033672
0.002902,0.031172
0.002903,0.033672
0.002904,0.029922
0.002905,0.031172
0.002906,0.033672
0.002907,0.036172
0.002908,0.033672
0.002909,0.034922
0.00291,0.031172
0.002911,0.032422
0.002912,0.032422
0.002913,0.034922
0.002914,0.029922
0.002915,0.028672
0.002916,0.029922
0.002917,0.033672
0.002918,0.028672
0.002919,0.029922
0.00292,0.029922
0.002921,0.031172
0.002922,0.031172
0.002923,0.026172
0.002924,0.034922
0.002925,0.032422
0.002926,0.028672
0.002927,0.029922
0.002928,0.029922
0.002929,0.031172
0.00293,0.032422
0.002931,0.032422
0.002932,0.028672
0.002933,0.037422
0.002934,0.031172
0.002935,0.032422
0.002936,0.031172
0.002937,0.031172
0.002938,0.029922
0.002939,0.032422
0.00294,0.028672
0.002941,0.032422
0.002942,0.032422
0.002943,0.031172
0.002944,0.033672
0.002945,0.033672
0.002946,0.031172
0.002947,0.029922
0.002948,0.032422
0.002949,0.032422
0.00295,0.031172
0.002951,0.031172
0.002952,0.032422
0.002953,0.032422
0.002954,0.031172
0.002955,0.029922
0.002956,0.031172
0.002957,0.031172
0.002958,0.032422
0.002959,0.032422
0.00296,0.032422
0.002961,0.031172
0.002962,0.032422
0.002963,0.027422
0.002964,0.032422
0.002965,0.032422
0.002966,0.034922
0.002967,0.028672
0.002968,0.032422
0.002969,0.034922
0.00297,0.031172
0.002971,0.032422
0.002972,0.036172
0.002973,0.031172
0.002974,0.031172
0.002975,0.029922
0.002976,0.034922
0.002977,0.034922
0.002978,0.029922
0.002979,0.029922
0.00298,0.031172
0.002981,0.029922
0.002982,0.031172
0.002983,0.029922
0.002984,0.033672
0.002985,0.032422
0.002986,0.029922
0.002987,0.028672
0.002988,0.034922
0.002989,0.032422
0.00299,0.029922
0.002991,0.031172
0.002992,0.033672
0.002993,0.033672
0.002994,0.032422
0.002995,0.032422
0.002996,0.031172
0.002997,0.033672
0.002998,0.033672
0.002999,0.031172
0.003,0.031172
0.003001,0.034922
0.003002,0.033672
0.003003,0.032422
0.003004,0.032422
0.003005,0.032422
0.003006,0.031172
0.003007,0.028672
0.003008,0.032422
0.003009,0.033672
0.00301,0.034922
0.003011,0.032422
0.003012,0.031172
0.003013,0.033672
0.003014,0.028672
0.003015,0.031172
0.003016,0.032422
0.003017,0.033672
0.003018,0.034922
0.003019,0.028672
0.00302,0.033672
0.003021,0.031172
0.003022,0.031172
0.003023,0.031172
0.003024,0.032422
0.003025,0.037422
0.003026,0.031172
0.003027,0.034922
0.003028,0.034922
0.003029,0.032422
0.00303,0.032422
0.003031,0.031172
0.003032,0.032422
0.003033,0.032422
0.003034,0.028672
0.003035,0.031172
0.003036,0.034922
0.003037,0.032422
0.003038,0.032422
0.003039,0.032422
0.00304,0.028672
0.003041,0.033672
0.003042,0.029922
0.003043,0.033672
0.003044,0.034922
0.003045,0.032422
0.003046,0.034922
0.003047,0.032422
0.003048,0.032422
0.003049,0.032422
0.00305,0.033672
0.003051,0.034922
0.003052,0.034922
0.003053,0.032422
0.003054,0.033672
0.003055,0.028672
0.003056,0.033672
0.003057,0.033672
0.003058,0.029922
0.003059,0.031172
0.00306,0.034922
0.003061,0.032422
0.003062,0.033672
0.003063,0.032422
0.003064,0.032422
0.003065,0.033672
0.003066,0.033672
0.003067,0.033672
0.003068,0.031172
0.003069,0.033672
0.00307,0.028672
0.003071,0.032422
0.003072,0.031172
0.003073,0.033672
0.003074,0.031172
0.003075,0.032422
0.003076,0.036172
0.003077,0.033672
0.003078,0.033672
0.003079,0.031172
0.00308,0.034922
0.003081,0.031172
0.003082,0.034922
0.003083,0.033672
0.003084,0.033672
0.003085,0.033672
0.003086,0.034922
0.003087,0.033672
0.003088,0.033672
0.003089,0.036172
0.00309,0.037422
0.003091,0.029922
0.003092,0.036172
0.003093,0.029922
0.003094,0.033672
0.003095,0.032422
0.003096,0.036172
0.003097,0.032422
0.003098,0.032422
0.003099,0.028672
0.0031,0.032422
0.003101,0.033672
0.003102,0.032422
0.003103,0.032422
0.003104,0.033672
0.003105,0.034922
0.003106,0.032422
0.003107,0.033672
0.003108,0.036172
0.003109,0.029922
0.00311,0.033672
0.003111,0.032422
0.003112,0.033672
0.003113,0.029922
0.003114,0.034922
0.003115,0.033672
0.003116,0.032422
0.003117,0.032422
0.003118,0.034922
0.003119,0.031172
0.00312,0.033672
0.003121,0.036172
0.003122,0.031172
0.003123,0.033672
0.003124,0.033672
0.003125,0.034922
0.003126,0.036172
0.003127,0.033672
0.003128,0.034922
0.003129,0.032422
0.00313,0.034922
0.003131,0.033672
0.003132,0.033672
0.003133,0.032422
0.003134,0.036172
0.003135,0.032422
0.003136,0.034922
0.003137,0.034922
0.003138,0.033672
0.003139,0.036172
0.00314,0.034922
0.003141,0.034922
0.003142,0.034922
0.003143,0.033672
0.003144,0.034922
0.003145,0.033672
0.003146,0.036172
0.003147,0.033672
0.003148,0.034922
0.003149,0.033672
0.00315,0.034922
0.003151,0.033672
0.003152,0.036172
0.003153,0.033672
0.003154,0.032422
0.003155,0.033672
0.003156,0.036172
0.003157,0.036172
0.003158,0.033672
0.003159,0.033672
0.00316,0.033672
0.003161,0.037422
0.003162,0.031172
0.003163,0.034922
0.003164,0.034922
0.003165,0.034922
0.003166,0.036172
0.003167,0.034922
0.003168,0.029922
0.003169,0.034922
0.00317,0.031172
0.003171,0.034922
0.003172,0.034922
0.003173,0.032422
0.003174,0.033672
0.003175,0.032422
0.003176,0.034922
0.003177,0.033672
0.003178,0.033672
0.003179,0.037422
0.00318,0.032422
0.003181,0.037422
0.003182,0.034922
0.003183,0.033672
0.003184,0.031172
0.003185,0.032422
0.003186,0.034922
0.003187,0.033672
0.003188,0.032422
0.003189,0.036172
0.00319,0.031172
0.003191,0.033672
0.003192,0.032422
0.003193,0.032422
0.003194,0.036172
0.003195,0.033672
0.003196,0.032422
0.003197,0.034922
0.003198,0.036172
0.003199,0.032422
0.0032,0.034922
0.003201,0.033672
0.003202,0.034922
0.003203,0.033672
0.003204,0.034922
0.003205,0.036172
0.003206,0.036172
0.003207,0.033672
0.003208,0.038672
0.003209,0.034922
0.00321,0.036172
0.003211,0.031172
0.003212,0.033672
0.003213,0.033672
0.003214,0.034922
0.003215,0.036172
0.003216,0.036172
0.003217,0.038672
0.003218,0.032422
0.003219,0.034922
0.00322,0.036172
0.003221,0.036172
0.003222,0.036172
0.003223,0.034922
0.003224,0.037422
0.003225,0.034922
0.003226,0.034922
0.003227,0.036172
0.003228,0.031172
0.003229,0.033672
0.00323,0.039922
0.003231,0.034922
0.003232,0.031172
0.003233,0.036172
0.003234,0.036172
0.003235,0.031172
0.003236,0.036172
0.003237,0.031172
0.003238,0.037422
0.003239,0.034922
0.00324,0.036172
0.003241,0.032422
0.003242,0.034922
0.003243,0.036172
0.003244,0.036172
0.003245,0.036172
0.003246,0.033672
0.003247,0.036172
0.003248,0.034922
0.003249,0.033672
0.00325,0.039922
0.003251,0.036172
0.003252,0.034922
0.003253,0.037422
0.003254,0.038672
0.003255,0.036172
0.003256,0.037422
0.003257,0.036172
0.003258,0.036172
0.003259,0.033672
0.00326,0.037422
0.003261,0.034922
0.003262,0.034922
0.003263,0.034922
0.003264,0.036172
0.003265,0.038672
0.003266,0.036172
0.003267,0.034922
0.003268,0.036172
0.003269,0.037422
0.00327,0.036172
0.003271,0.037422
0.003272,0.036172
0.003273,0.037422
0.003274,0.037422
0.003275,0.034922
0.003276,0.038672
0.003277,0.034922
0.003278,0.036172
0.003279,0.036172
0.00328,0.036172
0.003281,0.037422
0.003282,0.033672
0.003283,0.034922
0.003284,0.037422
0.003285,0.036172
0.003286,0.038672
0.003287,0.038672
0.003288,0.038672
0.003289,0.037422
0.00329,0.036172
0.003291,0.034922
0.003292,0.036172
0.003293,0.034922
0.003294,0.037422
0.003295,0.036172
0.003296,0.034922
0.003297,0.038672
0.003298,0.033672
0.003299,0.037422
0.0033,0.038672
0.003301,0.036172
0.003302,0.037422
0.003303,0.034922
0.003304,0.036172
0.003305,0.036172
0.003306,0.039922
0.003307,0.034922
0.003308,0.037422
0.003309,0.033672
0.00331,0.031172
0.003311,0.034922
0.003312,0.036172
0.003313,0.038672
0.003314,0.037422
0.003315,0.034922
0.003316,0.037422
0.003317,0.037422
0.003318,0.036172
0.003319,0.038672
0.00332,0.034922
0.003321,0.036172
0.003322,0.038672
0.003323,0.033672
0.003324,0.038672
0.003325,0.036172
0.003326,0.034922
0.003327,0.036172
0.003328,0.036172
0.003329,0.037422
0.00333,0.039922
0.003331,0.033672
0.003332,0.038672
0.003333,0.033672
0.003334,0.031172
0.003335,0.041172
0.003336,0.036172
0.003337,0.033672
0.003338,0.037422
0.003339,0.034922
0.00334,0.034922
0.003341,0.037422
0.003342,0.033672
0.003343,0.034922
0.003344,0.034922
0.003345,0.036172
0.003346,0.034922
0.003347,0.037422
0.003348,0.037422
0.003349,0.034922
0.00335,0.034922
0.003351,0.037422
0.003352,0.037422
0.003353,0.038672
0.003354,0.034922
0.003355,0.034922
0.003356,0.038672
0.003357,0.036172
0.003358,0.034922
0.003359,0.036172
0.00336,0.038672
0.003361,0.037422
0.003362,0.036172
0.003363,0.036172
0.003364,0.037422
0.003365,0.037422
0.003366,0.034922
0.003367,0.036172
0.003368,0.036172
0.003369,0.036172
0.00337,0.037422
0.003371,0.033672
0.003372,0.038672
0.003373,0.037422
0.003374,0.034922
0.003375,0.037422
0.003376,0.039922
0.003377,0.036172
0.003378,0.036172
0.003379,0.034922
0.00338,0.034922
0.003381,0.039922
0.003382,0.038672
0.003383,0.036172
0.003384,0.039922
0.003385,0.038672
0.003386,0.034922
0.003387,0.036172
0.003388,0.036172
0.003389,0.033672
0.00339,0.038672
0.003391,0.033672
0.003392,0.034922
0.003393,0.039922
0.003394,0.036172
0.003395,0.034922
0.003396,0.037422
0.003397,0.036172
0.003398,0.039922
0.003399,0.037422
0.0034,0.037422
0.003401,0.036172
0.003402,0.034922
0.003403,0.038672
0.003404,0.034922
0.003405,0.037422
0.003406,0.036172
0.003407,0.034922
0.003408,0.039922
0.003409,0.036172
0.00341,0.037422
0.003411,0.036172
0.003412,0.037422
0.003413,0.039922
0.003414,0.038672
0.003415,0.034922
0.003416,0.036172
0.003417,0.036172
0.003418,0.036172
0.003419,0.038672
0.00342,0.036172
0.003421,0.037422
0.003422,0.036172
0.003423,0.037422
0.003424,0.034922
0.003425,0.038672
0.003426,0.034922
0.003427,0.034922
0.003428,0.036172
0.003429,0.038672
0.00343,0.039922
0.003431,0.034922
0.003432,0.039922
0.003433,0.038672
0.003434,0.038672
0.003435,0.036172
0.003436,0.033672
0.003437,0.036172
0.003438,0.033672
0.003439,0.037422
0.00344,0.036172
0.003441,0.038672
0.003442,0.038672
0.003443,0.036172
0.003444,0.036172
0.003445,0.037422
0.003446,0.037422
0.003447,0.037422
0.003448,0.037422
0.003449,0.037422
0.00345,0.037422
0.003451,0.039922
0.003452,0.036172
0.003453,0.037422
0.003454,0.037422
0.003455,0.039922
0.003456,0.039922
0.003457,0.038672
0.003458,0.038672
0.003459,0.039922
0.00346,0.039922
0.003461,0.039922
0.003462,0.038672
0.003463,0.038672
0.003464,0.037422
0.003465,0.042422
0.003466,0.037422
0.003467,0.034922
0.003468,0.038672
0.003469,0.039922
0.00347,0.038672
0.003471,0.039922
0.003472,0.038672
0.003473,0.043672
0.003474,0.041172
0.003475,0.038672
0.003476,0.042422
0.003477,0.042422
0.003478,0.041172
0.003479,0.041172
0.00348,0.042422
0.003481,0.043672
0.003482,0.042422
0.003483,0.043672
0.003484,0.042422
0.003485,0.043672
0.003486,0.043672
0.003487,0.041172
0.003488,0.042422
0.003489,0.044922
0.00349,0.046172
0.003491,0.048672
0.003492,0.046172
0.003493,0.046172
0.003494,0.044922
0.003495,0.043672
0.003496,0.047422
0.003497,0.046172
0.003498,0.047422
0.003499,0.047422
0.0035,0.046172
0.003501,0.047422
0.003502,0.049922
0.003503,0.048672
0.003504,0.046172
0.003505,0.051172
0.003506,0.048672
0.003507,0.048672
0.003508,0.049922
0.003509,0.049922
0.00351,0.048672
0.003511,0.047422
0.003512,0.052422
0.003513,0.051172
0.003514,0.051172
0.003515,0.049922
0.003516,0.048672
0.003517,0.052422
0.003518,0.052422
0.003519,0.052422
0.00352,0.049922
0.003521,0.049922
0.003522,0.051172
0.003523,0.053672
0.003524,0.054922
0.003525,0.053672
0.003526,0.054922
0.003527,0.053672
0.003528,0.053672
0.003529,0.057422
0.00353,0.054922
0.003531,0.056172
0.003532,0.054922
0.003533,0.061172
0.003534,0.057422
0.003535,0.058672
0.003536,0.059922
0.003537,0.057422
0.003538,0.058672
0.003539,0.056172
0.00354,0.061172
0.003541,0.054922
0.003542,0.059922
0.003543,0.058672
0.003544,0.061172
0.003545,0.059922
0.003546,0.059922
0.003547,0.058672
0.003548,0.061172
0.003549,0.059922
0.00355,0.061172
0.003551,0.063672
0.003552,0.061172
0.003553,0.062422
0.003554,0.061172
0.003555,0.061172
0.003556,0.062422
0.003557,0.062422
0.003558,0.062422
0.003559,0.063672
0.00356,0.063672
0.003561,0.062422
0.003562,0.063672
0.003563,0.063672
0.003564,0.066172
0.003565,0.063672
0.003566,0.066172
0.003567,0.066172
0.003568,0.067422
0.003569,0.066172
0.00357,0.067422
0.003571,0.062422
0.003572,0.066172
0.003573,0.066172
0.003574,0.063672
0.003575,0.066172
0.003576,0.067422
0.003577,0.067422
0.003578,0.064922
0.003579,0.068672
0.00358,0.066172
0.003581,0.067422
0.003582,0.069922
0.003583,0.066172
0.003584,0.067422
0.003585,0.064922
0.003586,0.068672
0.003587,0.067422
0.003588,0.068672
0.003589,0.068672
0.00359,0.063672
0.003591,0.066172
0.003592,0.069922
0.003593,0.071172
0.003594,0.068672
0.003595,0.067422
0.003596,0.067422
0.003597,0.064922
0.003598,0.068672
0.003599,0.067422
0.0036,0.069922
0.003601,0.069922
0.003602,0.068672
0.003603,0.068672
0.003604,0.068672
0.003605,0.068672
0.003606,0.069922
0.003607,0.069922
0.003608,0.071172
0.003609,0.069922
0.00361,0.071172
0.003611,0.069922
0.003612,0.068672
0.003613,0.066172
0.003614,0.069922
0.003615,0.067422
0.003616,0.069922
0.003617,0.067422
0.003618,0.066172
0.003619,0.068672
0.00362,0.069922
0.003621,0.063672
0.003622,0.067422
0.003623,0.063672
0.003624,0.066172
0.003625,0.067422
0.003626,0.066172
0.003627,0.067422
0.003628,0.068672
0.003629,0.064922
0.00363,0.064922
0.003631,0.067422
0.003632,0.067422
0.003633,0.067422
0.003634,0.064922
0.003635,0.063672
0.003636,0.062422
0.003637,0.068672
0.003638,0.062422
0.003639,0.061172
0.00364,0.064922
0.003641,0.067422
0.003642,0.061172
0.003643,0.062422
0.003644,0.062422
0.003645,0.062422
0.003646,0.062422
0.003647,0.064922
0.003648,0.059922
0.003649,0.064922
0.00365,0.061172
0.003651,0.064922
0.003652,0.059922
0.003653,0.058672
0.003654,0.061172
0.003655,0.061172
0.003656,0.062422
0.003657,0.062422
0.003658,0.059922
0.003659,0.061172
0.00366,0.059922
0.003661,0.061172
0.003662,0.054922
0.003663,0.057422
0.003664,0.058672
0.003665,0.059922
0.003666,0.061172
0.003667,0.061172
0.003668,0.056172
0.003669,0.057422
0.00367,0.058672
0.003671,0.054922
0.003672,0.057422
0.003673,0.062422
0.003674,0.056172
0.003675,0.059922
0.003676,0.058672
0.003677,0.054922
0.003678,0.056172
0.003679,0.057422
0.00368,0.056172
0.003681,0.054922
0.003682,0.057422
0.003683,0.053672
0.003684,0.051172
0.003685,0.053672
0.003686,0.053672
0.003687,0.054922
0.003688,0.053672
0.003689,0.053672
0.00369,0.053672
0.003691,0.053672
0.003692,0.053672
0.003693,0.056172
0.003694,0.052422
0.003695,0.048672
0.003696,0.054922
0.003697,0.052422
0.003698,0.052422
0.003699,0.052422
0.0037,0.053672
0.003701,0.051172
0.003702,0.051172
0.003703,0.052422
0.003704,0.051172
0.003705,0.052422
0.003706,0.051172
0.003707,0.049922
0.003708,0.048672
0.003709,0.049922
0.00371,0.051172
0.003711,0.051172
0.003712,0.048672
0.003713,0.049922
0.003714,0.049922
0.003715,0.047422
0.003716,0.048672
0.003717,0.048672
0.003718,0.048672
0.003719,0.048672
0.00372,0.046172
0.003721,0.051172
0.003722,0.043672
0.003723,0.044922
0.003724,0.049922
0.003725,0.049922
0.003726,0.046172
0.003727,0.044922
0.003728,0.049922
0.003729,0.046172
0.00373,0.047422
0.003731,0.047422
0.003732,0.041172
0.003733,0.047422
0.003734,0.048672
0.003735,0.043672
0.003736,0.046172
0.003737,0.047422
0.003738,0.047422
0.003739,0.043672
0.00374,0.043672
0.003741,0.046172
0.003742,0.043672
0.003743,0.042422
0.003744,0.042422
0.003745,0.042422
0.003746,0.042422
0.003747,0.037422
0.003748,0.044922
0.003749,0.046172
0.00375,0.043672
0.003751,0.043672
0.003752,0.041172
0.003753,0.042422
0.003754,0.041172
0.003755,0.042422
0.003756,0.041172
0.003757,0.042422
0.003758,0.038672
0.003759,0.042422
0.00376,0.038672
0.003761,0.039922
0.003762,0.043672
0.003763,0.042422
0.003764,0.039922
0.003765,0.041172
0.003766,0.042422
0.003767,0.039922
0.003768,0.041172
0.003769,0.041172
0.00377,0.039922
0.003771,0.042422
0.003772,0.042422
0.003773,0.041172
0.003774,0.041172
0.003775,0.038672
0.003776,0.039922
0.003777,0.042422
0.003778,0.039922
0.003779,0.038672
0.00378,0.041172
0.003781,0.042422
0.003782,0.039922
0.003783,0.036172
0.003784,0.039922
0.003785,0.042422
0.003786,0.038672
0.003787,0.041172
0.003788,0.036172
0.003789,0.038672
0.00379,0.039922
0.003791,0.037422
0.003792,0.037422
0.003793,0.038672
0.003794,0.038672
0.003795,0.037422
0.003796,0.039922
0.003797,0.038672
0.003798,0.038672
0.003799,0.036172
0.0038,0.037422
0.003801,0.037422
0.003802,0.037422
0.003803,0.032422
0.003804,0.041172
0.003805,0.034922
0.003806,0.036172
0.003807,0.037422
0.003808,0.038672
0.003809,0.037422
0.00381,0.036172
0.003811,0.037422
0.003812,0.036172
0.003813,0.037422
0.003814,0.033672
0.003815,0.036172
0.003816,0.037422
0.003817,0.033672
0.003818,0.034922
0.003819,0.038672
0.00382,0.029922
0.003821,0.033672
0.003822,0.037422
0.003823,0.034922
0.003824,0.034922
0.003825,0.036172
0.003826,0.036172
0.003827,0.034922
0.003828,0.037422
0.003829,0.033672
0.00383,0.037422
0.003831,0.036172
0.003832,0.031172
0.003833,0.037422
0.003834,0.034922
0.003835,0.033672
0.003836,0.037422
0.003837,0.034922
0.003838,0.038672
0.003839,0.033672
0.00384,0.034922
0.003841,0.033672
0.003842,0.033672
0.003843,0.031172
0.003844,0.029922
0.003845,0.032422
0.003846,0.036172
0.003847,0.031172
0.003848,0.031172
0.003849,0.037422
0.00385,0.031172
0.003851,0.033672
0.003852,0.033672
0.003853,0.033672
0.003854,0.033672
0.003855,0.033672
0.003856,0.034922
0.003857,0.034922
0.003858,0.032422
0.003859,0.032422
0.00386,0.036172
0.003861,0.033672
0.003862,0.032422
0.003863,0.032422
0.003864,0.032422
0.003865,0.033672
0.003866,0.031172
0.003867,0.032422
0.003868,0.031172
0.003869,0.033672
0.00387,0.036172
0.003871,0.032422
0.003872,0.032422
0.003873,0.029922
0.003874,0.034922
0.003875,0.031172
0.003876,0.036172
0.003877,0.031172
0.003878,0.032422
0.003879,0.032422
0.00388,0.032422
0.003881,0.032422
0.003882,0.034922
0.003883,0.033672
0.003884,0.032422
0.003885,0.032422
0.003886,0.033672
0.003887,0.033672
0.003888,0.034922
0.003889,0.032422
0.00389,0.034922
0.003891,0.033672
0.003892,0.031172
0.003893,0.028672
0.003894,0.032422
0.003895,0.033672
0.003896,0.033672
0.003897,0.032422
0.003898,0.033672
0.003899,0.032422
0.0039,0.032422
0.003901,0.031172
0.003902,0.029922
0.003903,0.032422
0.003904,0.031172
0.003905,0.031172
0.003906,0.029922
0.003907,0.028672
0.003908,0.032422
0.003909,0.032422
0.00391,0.037422
0.003911,0.031172
0.003912,0.031172
0.003913,0.029922
0.003914,0.033672
0.003915,0.028672
0.003916,0.032422
0.003917,0.034922
0.003918,0.031172
0.003919,0.032422
0.00392,0.032422
0.003921,0.032422
0.003922,0.032422
0.003923,0.031172
0.003924,0.031172
0.003925,0.031172
0.003926,0.033672
0.003927,0.029922
0.003928,0.029922
0.003929,0.031172
0.00393,0.031172
0.003931,0.031172
0.003932,0.032422
0.003933,0.031172
0.003934,0.033672
0.003935,0.029922
0.003936,0.033672
0.003937,0.033672
0.003938,0.028672
0.003939,0.029922
0.00394,0.032422
0.003941,0.033672
0.003942,0.032422
0.003943,0.031172
0.003944,0.032422
0.003945,0.029922
0.003946,0.032422
0.003947,0.028672
0.003948,0.028672
0.003949,0.032422
0.00395,0.031172
0.003951,0.031172
0.003952,0.031172
0.003953,0.031172
0.003954,0.033672
0.003955,0.028672
0.003956,0.028672
0.003957,0.033672
0.003958,0.032422
0.003959,0.028672
0.00396,0.032422
0.003961,0.033672
0.003962,0.032422
0.003963,0.033672
0.003964,0.034922
0.003965,0.029922
0.003966,0.032422
0.003967,0.031172
0.003968,0.031172
0.003969,0.031172
0.00397,0.026172
0.003971,0.031172
0.003972,0.033672
0.003973,0.029922
0.003974,0.031172
0.003975,0.028672
0.003976,0.033672
0.003977,0.031172
0.003978,0.029922
0.003979,0.029922
0.00398,0.031172
0.003981,0.031172
0.003982,0.031172
0.003983,0.031172
0.003984,0.033672
0.003985,0.034922
0.003986,0.033672
0.003987,0.031172
0.003988,0.034922
0.003989,0.032422
0.00399,0.032422
0.003991,0.031172
0.003992,0.036172
0.003993,0.033672
0.003994,0.029922
0.003995,0.027422
0.003996,0.032422
0.003997,0.033672
0.003998,0.033672
0.003999,0.029922
0.004,0.033672
0.004001,0.034922
0.004002,0.031172
0.004003,0.029922
0.004004,0.036172
0.004005,0.033672
0.004006,0.033672
0.004007,0.031172
0.004008,0.033672
0.004009,0.033672
0.00401,0.033672
0.004011,0.029922
0.004012,0.034922
0.004013,0.033672
0.004014,0.033672
0.004015,0.032422
0.004016,0.032422
0.004017,0.031172
0.004018,0.031172
0.004019,0.034922
0.00402,0.028672
0.004021,0.031172
0.004022,0.032422
0.004023,0.036172
0.004024,0.031172
0.004025,0.034922
0.004026,0.034922
0.004027,0.031172
0.004028,0.032422
0.004029,0.032422
0.00403,0.029922
0.004031,0.029922
0.004032,0.032422
0.004033,0.036172
0.004034,0.031172
0.004035,0.031172
0.004036,0.034922
0.004037,0.032422
0.004038,0.034922
0.004039,0.032422
0.00404,0.032422
0.004041,0.034922
0.004042,0.036172
0.004043,0.033672
0.004044,0.029922
0.004045,0.031172
0.004046,0.029922
0.004047,0.031172
0.004048,0.033672
0.004049,0.036172
0.00405,0.033672
0.004051,0.034922
0.004052,0.034922
0.004053,0.031172
0.004054,0.036172
0.004055,0.029922
0.004056,0.034922
0.004057,0.034922
0.004058,0.032422
0.004059,0.034922
0.00406,0.034922
0.004061,0.032422
0.004062,0.029922
0.004063,0.031172
0.004064,0.033672
0.004065,0.036172
0.004066,0.033672
0.004067,0.032422
0.004068,0.032422
0.004069,0.029922
0.00407,0.033672
0.004071,0.033672
0.004072,0.032422
0.004073,0.031172
0.004074,0.031172
0.004075,0.029922
0.004076,0.032422
0.004077,0.032422
0.004078,0.031172
0.004079,0.028672
0.00408,0.033672
0.004081,0.036172
0.004082,0.031172
0.004083,0.032422
0.004084,0.033672
0.004085,0.033672
0.004086,0.031172
0.004087,0.032422
0.004088,0.034922
0.004089,0.031172
0.00409,0.031172
0.004091,0.033672
0.004092,0.032422
0.004093,0.029922
0.004094,0.029922
0.004095,0.033672
0.004096,0.033672
0.004097,0.036172
0.004098,0.034922
0.004099,0.032422
0.0041,0.032422
0.004101,0.031172
0.004102,0.034922
0.004103,0.032422
0.004104,0.034922
0.004105,0.032422
0.004106,0.033672
0.004107,0.032422
0.004108,0.036172
0.004109,0.032422
0.00411,0.036172
0.004111,0.036172
0.004112,0.034922
0.004113,0.032422
0.004114,0.034922
0.004115,0.032422
0.004116,0.036172
0.004117,0.034922
0.004118,0.033672
0.004119,0.033672
0.00412,0.033672
0.004121,0.034922
0.004122,0.033672
0.004123,0.029922
0.004124,0.033672
0.004125,0.034922
0.004126,0.032422
0.004127,0.034922
0.004128,0.037422
0.004129,0.032422
0.00413,0.028672
0.004131,0.033672
0.004132,0.037422
0.004133,0.034922
0.004134,0.033672
0.004135,0.034922
0.004136,0.033672
0.004137,0.033672
0.004138,0.034922
0.004139,0.034922
0.00414,0.036172
0.004141,0.033672
0.004142,0.033672
0.004143,0.032422
0.004144,0.036172
0.004145,0.033672
0.004146,0.036172
0.004147,0.033672
0.004148,0.034922
0.004149,0.033672
0.00415,0.033672
0.004151,0.034922
0.004152,0.037422
0.004153,0.036172
0.004154,0.033672
0.004155,0.034922
0.004156,0.034922
0.004157,0.037422
0.004158,0.036172
0.004159,0.033672
0.00416,0.036172
0.004161,0.034922
0.004162,0.032422
0.004163,0.034922
0.004164,0.034922
0.004165,0.036172
0.004166,0.036172
0.004167,0.036172
0.004168,0.036172
0.004169,0.032422
0.00417,0.032422
0.004171,0.033672
0.004172,0.031172
0.004173,0.036172
0.004174,0.036172
0.004175,0.034922
0.004176,0.034922
0.004177,0.034922
0.004178,0.036172
0.004179,0.032422
0.00418,0.031172
0.004181,0.033672
0.004182,0.032422
0.004183,0.036172
0.004184,0.033672
0.004185,0.032422
0.004186,0.034922
0.004187,0.033672
0.004188,0.032422
0.004189,0.034922
0.00419,0.033672
0.004191,0.033672
0.004192,0.034922
0.004193,0.036172
0.004194,0.033672
0.004195,0.032422
0.004196,0.032422
0.004197,0.033672
0.004198,0.033672
0.004199,0.036172
0.0042,0.036172
0.004201,0.034922
0.004202,0.036172
0.004203,0.034922
0.004204,0.036172
0.004205,0.036172
0.004206,0.037422
0.004207,0.033672
0.004208,0.034922
0.004209,0.034922
0.00421,0.034922
0.004211,0.033672
0.004212,0.036172
0.004213,0.034922
0.004214,0.034922
0.004215,0.031172
0.004216,0.036172
0.004217,0.033672
0.004218,0.037422
0.004219,0.033672
0.00422,0.034922
0.004221,0.033672
0.004222,0.034922
0.004223,0.033672
0.004224,0.037422
0.004225,0.036172
0.004226,0.033672
0.004227,0.034922
0.004228,0.038672
0.004229,0.036172
0.00423,0.037422
0.004231,0.031172
0.004232,0.037422
0.004233,0.034922
0.004234,0.034922
0.004235,0.036172
0.004236,0.037422
0.004237,0.036172
0.004238,0.031172
0.004239,0.034922
0.00424,0.036172
0.004241,0.033672
0.004242,0.036172
0.004243,0.036172
0.004244,0.037422
0.004245,0.034922
0.004246,0.034922
0.004247,0.036172
0.004248,0.033672
0.004249,0.034922
0.00425,0.036172
0.004251,0.036172
0.004252,0.034922
0.004253,0.033672
0.004254,0.034922
0.004255,0.036172
0.004256,0.034922
0.004257,0.036172
0.004258,0.034922
0.004259,0.036172
0.00426,0.036172
0.004261,0.032422
0.004262,0.033672
0.004263,0.034922
0.004264,0.033672
0.004265,0.034922
0.004266,0.034922
0.004267,0.033672
0.004268,0.037422
0.004269,0.036172
0.00427,0.037422
0.004271,0.037422
0.004272,0.036172
0.004273,0.033672
0.004274,0.033672
0.004275,0.036172
0.004276,0.034922
0.004277,0.037422
0.004278,0.036172
0.004279,0.037422
0.00428,0.034922
0.004281,0.038672
0.004282,0.036172
0.004283,0.037422
0.004284,0.037422
0.004285,0.039922
0.004286,0.036172
0.004287,0.034922
0.004288,0.038672
0.004289,0.034922
0.00429,0.036172
0.004291,0.036172
0.004292,0.033672
0.004293,0.038672
0.004294,0.037422
0.004295,0.037422
0.004296,0.034922
0.004297,0.037422
0.004298,0.036172
0.004299,0.034922
0.0043,0.037422
0.004301,0.037422
0.004302,0.034922
0.004303,0.038672
0.004304,0.032422
0.004305,0.036172
0.004306,0.037422
0.004307,0.034922
0.004308,0.037422
0.004309,0.037422
0.00431,0.038672
0.004311,0.033672
0.004312,0.038672
0.004313,0.041172
0.004314,0.036172
0.004315,0.037422
0.004316,0.039922
0.004317,0.036172
0.004318,0.034922
0.004319,0.032422
0.00432,0.036172
0.004321,0.037422
0.004322,0.036172
0.004323,0.034922
0.004324,0.037422
0.004325,0.033672
0.004326,0.034922
0.004327,0.034922
0.004328,0.037422
0.004329,0.037422
0.00433,0.038672
0.004331,0.034922
0.004332,0.034922
0.004333,0.036172
0.004334,0.034922
0.004335,0.034922
0.004336,0.039922
0.004337,0.038672
0.004338,0.036172
0.004339,0.036172
0.00434,0.037422
0.004341,0.038672
0.004342,0.037422
0.004343,0.036172
0.004344,0.037422
0.004345,0.036172
0.004346,0.034922
0.004347,0.031172
0.004348,0.036172
0.004349,0.033672
0.00435,0.033672
0.004351,0.034922
0.004352,0.036172
0.004353,0.036172
0.004354,0.037422
0.004355,0.032422
0.004356,0.034922
0.004357,0.039922
0.004358,0.036172
0.004359,0.034922
0.00436,0.037422
0.004361,0.034922
0.004362,0.038672
0.004363,0.036172
0.004364,0.036172
0.004365,0.034922
0.004366,0.037422
0.004367,0.034922
0.004368,0.036172
0.004369,0.036172
0.00437,0.036172
0.004371,0.032422
0.004372,0.037422
0.004373,0.034922
0.004374,0.036172
0.004375,0.032422
0.004376,0.036172
0.004377,0.037422
0.004378,0.038672
0.004379,0.037422
0.00438,0.036172
0.004381,0.036172
0.004382,0.038672
0.004383,0.036172
0.004384,0.037422
0.004385,0.036172
0.004386,0.034922
0.004387,0.037422
0.004388,0.037422
0.004389,0.038672
0.00439,0.036172
0.004391,0.036172
0.004392,0.038672
0.004393,0.036172
0.004394,0.037422
0.004395,0.033672
0.004396,0.034922
0.004397,0.037422
0.004398,0.034922
0.004399,0.036172
0.0044,0.036172
0.004401,0.037422
0.004402,0.036172
0.004403,0.036172
0.004404,0.039922
0.004405,0.032422
0.004406,0.034922
0.004407,0.033672
0.004408,0.036172
0.004409,0.033672
0.00441,0.037422
0.004411,0.039922
0.004412,0.038672
0.004413,0.037422
0.004414,0.039922
0.004415,0.036172
0.004416,0.037422
0.004417,0.037422
0.004418,0.036172
0.004419,0.033672
0.00442,0.036172
0.004421,0.036172
0.004422,0.038672
0.004423,0.038672
0.004424,0.038672
0.004425,0.039922
0.004426,0.036172
0.004427,0.034922
0.004428,0.038672
0.004429,0.037422
0.00443,0.039922
0.004431,0.037422
0.004432,0.038672
0.004433,0.037422
0.004434,0.038672
0.004435,0.037422
0.004436,0.036172
0.004437,0.037422
0.004438,0.034922
0.004439,0.037422
0.00444,0.032422
0.004441,0.037422
0.004442,0.037422
0.004443,0.033672
0.004444,0.036172
0.004445,0.036172
0.004446,0.036172
0.004447,0.034922
0.004448,0.037422
0.004449,0.038672
0.00445,0.039922
0.004451,0.037422
0.004452,0.038672
0.004453,0.034922
0.004454,0.038672
0.004455,0.038672
0.004456,0.041172
0.004457,0.041172
0.004458,0.037422
0.004459,0.037422
0.00446,0.039922
0.004461,0.038672
0.004462,0.041172
0.004463,0.038672
0.004464,0.038672
0.004465,0.037422
0.004466,0.043672
0.004467,0.041172
0.004468,0.039922
0.004469,0.038672
0.00447,0.039922
0.004471,0.037422
0.004472,0.037422
0.004473,0.041172
0.004474,0.042422
0.004475,0.042422
0.004476,0.041172
0.004477,0.042422
0.004478,0.041172
0.004479,0.041172
0.00448,0.044922
0.004481,0.043672
0.004482,0.046172
0.004483,0.041172
0.004484,0.044922
0.004485,0.043672
0.004486,0.043672
0.004487,0.042422
0.004488,0.044922
0.004489,0.043672
0.00449,0.044922
0.004491,0.042422
0.004492,0.046172
0.004493,0.042422
0.004494,0.048672
0.004495,0.046172
0.004496,0.044922
0.004497,0.046172
0.004498,0.047422
0.004499,0.048672
0.0045,0.049922
0.004501,0.047422
0.004502,0.044922
0.004503,0.048672
0.004504,0.046172
0.004505,0.047422
0.004506,0.048672
0.004507,0.051172
0.004508,0.049922
0.004509,0.047422
0.00451,0.049922
0.004511,0.044922
0.004512,0.051172
0.004513,0.049922
0.004514,0.052422
0.004515,0.051172
0.004516,0.051172
0.004517,0.052422
0.004518,0.052422
0.004519,0.051172
0.00452,0.052422
0.004521,0.051172
0.004522,0.054922
0.004523,0.052422
0.004524,0.053672
0.004525,0.052422
0.004526,0.057422
0.004527,0.054922
0.004528,0.057422
0.004529,0.054922
0.00453,0.057422
0.004531,0.056172
0.004532,0.057422
0.004533,0.058672
0.004534,0.058672
0.004535,0.054922
0.004536,0.056172
0.004537,0.057422
0.004538,0.059922
0.004539,0.056172
0.00454,0.056172
0.004541,0.059922
0.004542,0.061172
0.004543,0.058672
0.004544,0.059922
0.004545,0.058672
0.004546,0.059922
0.004547,0.062422
0.004548,0.061172
0.004549,0.061172
0.00455,0.058672
0.004551,0.059922
0.004552,0.062422
0.004553,0.063672
0.004554,0.063672
0.004555,0.063672
0.004556,0.062422
0.004557,0.062422
0.004558,0.062422
0.004559,0.063672
0.00456,0.066172
0.004561,0.064922
0.004562,0.061172
0.004563,0.059922
0.004564,0.064922
0.004565,0.062422
0.004566,0.064922
0.004567,0.066172
0.004568,0.067422
0.004569,0.063672
0.00457,0.063672
0.004571,0.067422
0.004572,0.067422
0.004573,0.066172
0.004574,0.068672
0.004575,0.066172
0.004576,0.069922
0.004577,0.068672
0.004578,0.064922
0.004579,0.068672
0.00458,0.066172
0.004581,0.068672
0.004582,0.064922
0.004583,0.066172
0.004584,0.069922
0.004585,0.066172
0.004586,0.069922
0.004587,0.064922
0.004588,0.068672
0.004589,0.069922
0.00459,0.071172
0.004591,0.068672
0.004592,0.068672
0.004593,0.071172
0.004594,0.068672
0.004595,0.064922
0.004596,0.068672
0.004597,0.068672
0.004598,0.072422
0.004599,0.069922
0.0046,0.069922
0.004601,0.066172
0.004602,0.067422
0.004603,0.068672
0.004604,0.069922
0.004605,0.069922
0.004606,0.068672
0.004607,0.068672
0.004608,0.068672
0.004609,0.066172
0.00461,0.066172
0.004611,0.068672
0.004612,0.069922
0.004613,0.067422
0.004614,0.068672
0.004615,0.067422
0.004616,0.068672
0.004617,0.066172
0.004618,0.066172
0.004619,0.066172
0.00462,0.067422
0.004621,0.067422
0.004622,0.066172
0.004623,0.066172
0.004624,0.069922
0.004625,0.066172
0.004626,0.067422
0.004627,0.067422
0.004628,0.068672
0.004629,0.063672
0.00463,0.067422
0.004631,0.068672
0.004632,0.067422
0.004633,0.064922
0.004634,0.064922
0.004635,0.067422
0.004636,0.063672
0.004637,0.064922
0.004638,0.064922
0.004639,0.058672
0.00464,0.063672
0.004641,0.066172
0.004642,0.067422
0.004643,0.058672
0.004644,0.063672
0.004645,0.062422
0.004646,0.061172
0.004647,0.062422
0.004648,0.067422
0.004649,0.064922
0.00465,0.062422
0.004651,0.063672
0.004652,0.062422
0.004653,0.064922
0.004654,0.064922
0.004655,0.063672
0.004656,0.061172
0.004657,0.061172
0.004658,0.059922
0.004659,0.061172
0.00466,0.062422
0.004661,0.058672
0.004662,0.059922
0.004663,0.058672
0.004664,0.062422
0.004665,0.059922
0.004666,0.058672
0.004667,0.058672
0.004668,0.058672
0.004669,0.058672
0.00467,0.056172
0.004671,0.053672
0.004672,0.057422
0.004673,0.057422
0.004674,0.057422
0.004675,0.057422
0.004676,0.058672
0.004677,0.059922
0.004678,0.056172
0.004679,0.057422
0.00468,0.054922
0.004681,0.059922
0.004682,0.057422
0.004683,0.051172
0.004684,0.053672
0.004685,0.056172
0.004686,0.049922
0.004687,0.049922
0.004688,0.054922
0.004689,0.051172
0.00469,0.054922
0.004691,0.053672
0.004692,0.054922
0.004693,0.052422
0.004694,0.051172
0.004695,0.053672
0.004696,0.051172
0.004697,0.052422
0.004698,0.052422
0.004699,0.052422
0.0047,0.052422
0.004701,0.048672
0.004702,0.052422
0.004703,0.052422
0.004704,0.051172
0.004705,0.048672
0.004706,0.051172
0.004707,0.048672
0.004708,0.051172
0.004709,0.049922
0.00471,0.048672
0.004711,0.049922
0.004712,0.047422
0.004713,0.051172
0.004714,0.046172
0.004715,0.049922
0.004716,0.046172
0.004717,0.047422
0.004718,0.046172
0.004719,0.046172
0.00472,0.048672
0.004721,0.047422
0.004722,0.048672
0.004723,0.049922
0.004724,0.047422
0.004725,0.047422
0.004726,0.047422
0.004727,0.043672
0.004728,0.047422
0.004729,0.043672
0.00473,0.044922
0.004731,0.044922
0.004732,0.044922
0.004733,0.046172
0.004734,0.043672
0.004735,0.044922
0.004736,0.046172
0.004737,0.044922
0.004738,0.043672
0.004739,0.044922
0.00474,0.044922
0.004741,0.042422
0.004742,0.047422
0.004743,0.041172
0.004744,0.041172
0.004745,0.046172
0.004746,0.042422
0.004747,0.041172
0.004748,0.044922
0.004749,0.042422
0.00475,0.043672
0.004751,0.039922
0.004752,0.041172
0.004753,0.044922
0.004754,0.042422
0.004755,0.041172
0.004756,0.043672
0.004757,0.042422
0.004758,0.041172
0.004759,0.043672
0.00476,0.041172
0.004761,0.041172
0.004762,0.039922
0.004763,0.039922
0.004764,0.043672
0.004765,0.041172
0.004766,0.043672
0.004767,0.038672
0.004768,0.041172
0.004769,0.038672
0.00477,0.038672
0.004771,0.039922
0.004772,0.041172
0.004773,0.036172
0.004774,0.041172
0.004775,0.041172
0.004776,0.038672
0.004777,0.036172
0.004778,0.041172
0.004779,0.037422
0.00478,0.038672
0.004781,0.038672
0.004782,0.039922
0.004783,0.034922
0.004784,0.038672
0.004785,0.036172
0.004786,0.038672
0.004787,0.041172
0.004788,0.041172
0.004789,0.037422
0.00479,0.037422
0.004791,0.038672
0.004792,0.039922
0.004793,0.037422
0.004794,0.038672
0.004795,0.036172
0.004796,0.037422
0.004797,0.036172
0.004798,0.034922
0.004799,0.039922
0.0048,0.039922
0.004801,0.037422
0.004802,0.036172
0.004803,0.036172
0.004804,0.036172
0.004805,0.037422
0.004806,0.036172
0.004807,0.037422
0.004808,0.041172
0.004809,0.037422
0.00481,0.041172
0.004811,0.037422
0.004812,0.038672
0.004813,0.032422
0.004814,0.037422
0.004815,0.032422
0.004816,0.034922
0.004817,0.037422
0.004818,0.036172
0.004819,0.033672
0.00482,0.036172
0.004821,0.034922
0.004822,0.034922
0.004823,0.032422
0.004824,0.034922
0.004825,0.036172
0.004826,0.037422
0.004827,0.034922
0.004828,0.036172
0.004829,0.034922
0.00483,0.034922
0.004831,0.036172
0.004832,0.039922
0.004833,0.037422
0.004834,0.032422
